%OpenBCI Raw EXG Data
%Number of channels = 16
%Sample Rate = 125 Hz
%Board = OpenBCI_GUI$BoardCytonSerialDaisy
Sample Index, EXG Channel 0, EXG Channel 1, EXG Channel 2, EXG Channel 3, EXG Channel 4, EXG Channel 5, EXG Channel 6, EXG Channel 7, EXG Channel 8, EXG Channel 9, EXG Channel 10, EXG Channel 11, EXG Channel 12, EXG Channel 13, EXG Channel 14, EXG Channel 15, Accel Channel 0, Accel Channel 1, Accel Channel 2, Not Used, Digital Channel 0 (D11), Digital Channel 1 (D12), Digital Channel 2 (D13), Digital Channel 3 (D17), Not Used, Digital Channel 4 (D18), Analog Channel 0, Analog Channel 1, Analog Channel 2, Timestamp, Marker Channel, Timestamp (Formatted)
0.0, 33805.650032240155, 10760.80033311848, 5498.75265345009, 21655.86759517999, 9404.921162715098, -11523.106577766726, 31266.04482722817, 30459.258611113863, 0.0, 0.0, 0.0, 0.0, 0.0, 0.0, 0.0, 0.0, 0.0, 0.0, 0.0, 192.0, 0.0, 0.0, 0.0, 0.0, 0.0, 0.0, 0.0, 0.0, 0.0, 1.769163654591585E9, 0.0, 2026-01-23 18:20:54.591
196.0, 33621.56106490625, 10609.210802222588, 5357.824904659379, 21579.625794842934, 9347.655993420602, -11568.033584121893, 31321.43244998842, 30550.945466869533, -58654.88900600541, -30164.148529070444, -135766.4404233027, -54715.72932192437, -554.2115037693386, 2097.442996197104, -72144.0773778054, -187500.02235174447, 0.0, 0.0, 0.0, 192.0, 0.0, 0.0, 0.0, 0.0, 0.0, 0.0, 0.0, 0.0, 0.0, 1.769163654591686E9, 0.0, 2026-01-23 18:20:54.591
198.0, 33785.868738397214, 10735.386399672794, 5476.423260739239, 21651.218432333284, 9405.43525283757, -11518.256249219925, 31274.784359310193, 30465.382989094614, -58603.85997341394, -30124.474182662274, -135733.76217290905, -54692.99759781332, -545.4943234317689, 2164.6993952631233, -72081.7160107751, -187500.02235174447, 0.0, 0.0, 0.0, 192.0, 0.0, 0.0, 0.0, 0.0, 0.0, 0.0, 0.0, 0.0, 0.0, 1.769163654591783E9, 0.0, 2026-01-23 18:20:54.591
200.0, 33708.3081851373, 10676.422497799695, 5419.113387955831, 21609.711242879777, 9368.577226230767, -11553.370839759213, 31298.901891577472, 30514.51212340738, -58456.941957109215, -30050.646370726394, -135675.15589894724, -54652.049201971204, -530.8986343024534, 2286.4493473111806, -71940.16241313964, -187500.02235174447, 0.0, 0.0, 0.0, 192.0, 0.0, 0.0, 0.0, 0.0, 0.0, 0.0, 0.0, 0.0, 0.0, 1.769163654591891E9, 0.0, 2026-01-23 18:20:54.591
202.0, 33666.48807126142, 10635.205881024109, 5382.434175304673, 21602.08929802052, 9369.04661286433, -11545.838301877773, 31312.111772550557, 30525.240960745927, -58744.608908249014, -30211.02013719322, -135805.44421737723, -54743.06550539321, -563.3086637626486, 2037.7638385014343, -72206.25993088007, -187500.02235174447, 0.0, 0.0, 0.0, 192.0, 0.0, 0.0, 0.0, 0.0, 0.0, 0.0, 0.0, 0.0, 0.0, 1.769163654591979E9, 0.0, 2026-01-23 18:20:54.591
204.0, 33815.104820144756, 10760.442705207195, 5497.903287160789, 21656.135816113452, 9405.301142370838, -11523.106577766726, 31268.056484229146, 30459.705646002967, -58427.34824745038, -30027.69112917079, -135656.64865453824, -54639.42046635395, -526.4059336669367, 2301.1120916738623, -71932.18284036909, -187500.02235174447, 0.0, 0.0, 0.0, 192.0, 0.0, 0.0, 0.0, 0.0, 0.0, 0.0, 0.0, 0.0, 0.0, 1.769163654592069E9, 0.0, 2026-01-23 18:20:54.592
206.0, 33629.7865068658, 10611.490680157029, 5358.070773848388, 21580.22929194323, 9348.147731798617, -11567.988880632984, 31323.15353431148, 30550.90076338062, -58653.302032149084, -30163.83560464807, -135768.11680413687, -54716.93631612496, -554.2785590027046, 2120.353534263794, -72118.3728716818, -187500.02235174447, 0.0, 0.0, 0.0, 192.0, 0.0, 0.0, 0.0, 0.0, 0.0, 0.0, 0.0, 0.0, 0.0, 1.769163654592156E9, 0.0, 2026-01-23 18:20:54.592
208.0, 33794.20593907904, 10737.17453922922, 5476.914999117255, 21652.023095133674, 9405.994046448952, -11518.323304453292, 31275.969001766327, 30465.427692583526, -58605.558705992546, -30126.307025707607, -135737.1372863218, -54695.478641447866, -546.2095792543387, 2150.5954445118246, -72100.33501390637, -187500.02235174447, 0.0, 0.0, 0.0, 192.0, 0.0, 0.0, 0.0, 0.0, 0.0, 0.0, 0.0, 0.0, 0.0, 1.769163654592269E9, 0.0, 2026-01-23 18:20:54.592
210.0, 33715.21487417399, 10680.132887379275, 5420.521547856516, 21610.761774869177, 9369.515999497891, -11553.236729292481, 31300.175941011425, 30514.355661196194, -58456.20434954219, -30050.93694340431, -135677.07814897038, -54653.70323106089, -531.3009657026489, 2271.674844226223, -71959.67548604912, -187500.02235174447, 0.0, 0.0, 0.0, 192.0, 0.0, 0.0, 0.0, 0.0, 0.0, 0.0, 0.0, 0.0, 0.0, 1.769163654592357E9, 0.0, 2026-01-23 18:20:54.592
212.0, 33671.33839980822, 10635.898785102223, 5381.629512504282, 21602.40222244289, 9369.42659252007, -11546.151226300148, 31314.570464440643, 30526.023271801863, -58745.41357104941, -30211.86950348252, -135808.08172322295, -54745.14421762755, -563.7109951628441, 2052.0689549528306, -72192.96064292916, -187500.02235174447, 0.0, 0.0, 0.0, 192.0, 0.0, 0.0, 0.0, 0.0, 0.0, 0.0, 0.0, 0.0, 0.0, 1.769163654592449E9, 0.0, 2026-01-23 18:20:54.592
214.0, 33822.16797139263, 10761.627347663325, 5497.188031338219, 21657.186348102852, 9406.172860404595, -11522.368970199701, 31269.37523715201, 30459.50448030287, -58428.59994513988, -30028.36168150445, -135659.46497433961, -54641.365068121566, -526.7635615782216, 2293.534850303513, -71938.10605264975, -187500.02235174447, 0.0, 0.0, 0.0, 192.0, 0.0, 0.0, 0.0, 0.0, 0.0, 0.0, 0.0, 0.0, 0.0, 1.769163654592543E9, 0.0, 2026-01-23 18:20:54.592
216.0, 33633.251027256374, 10610.14957548971, 5355.992061614044, 21580.475161132235, 9348.952394599008, -11567.586549232788, 31325.3440052681, 30551.817184903288, -58651.983279226224, -30163.992066859257, -135769.72612973765, -54718.456234747915, -554.747945636266, 2120.1747203081513, -72108.98513901058, -187500.02235174447, 0.0, 0.0, 0.0, 192.0, 0.0, 0.0, 0.0, 0.0, 0.0, 0.0, 0.0, 0.0, 0.0, 1.769163654592663E9, 0.0, 2026-01-23 18:20:54.592
218.0, 33797.53634900288, 10734.559385127948, 5474.009272338066, 21652.067798622586, 9406.306970871326, -11518.144490497649, 31278.360638423044, 30466.567631550748, -58607.83858392699, -30127.82694433057, -135740.19947531217, -54697.87027810458, -546.6342623989896, 2159.5137905494917, -72074.09406591584, -187500.02235174447, 0.0, 0.0, 0.0, 192.0, 0.0, 0.0, 0.0, 0.0, 0.0, 0.0, 0.0, 0.0, 0.0, 1.769163654592766E9, 0.0, 2026-01-23 18:20:54.592
220.0, 33720.19931318752, 10677.920064678201, 5418.487539111083, 21611.812306858577, 9370.43242102056, -11552.744990914463, 31302.008784056758, 30514.400364685105, -58455.51144546407, -30050.534612004118, -135678.75452980454, -54655.04433572821, -531.2786139581935, 2284.92942868822, -71933.12161363622, -187500.02235174447, 0.0, 0.0, 0.0, 192.0, 0.0, 0.0, 0.0, 0.0, 0.0, 0.0, 0.0, 0.0, 0.0, 1.769163654592856E9, 0.0, 2026-01-23 18:20:54.592
222.0, 33668.90205966259, 10632.523671689472, 5377.9414746691555, 21601.888132320422, 9369.448944264524, -11545.950060600051, 31317.319729008643, 30527.766707869378, -58747.24641409474, -30213.41177384994, -135810.98745000214, -54746.97706067289, -564.1356783074949, 2050.236111907496, -72187.4397620487, -187500.02235174447, 0.0, 0.0, 0.0, 192.0, 0.0, 0.0, 0.0, 0.0, 0.0, 0.0, 0.0, 0.0, 0.0, 1.769163654592954E9, 0.0, 2026-01-23 18:20:54.592
224.0, 33822.145619648174, 10760.8897400963, 5496.204554582186, 21658.080417881065, 9407.513965071914, -11521.47490042149, 31271.319838919622, 30459.50448030287, -58430.05280852948, -30029.680434427315, -135661.99072146305, -54643.48848384482, -526.9647272783193, 2285.5329257885132, -71942.44229107408, -187500.02235174447, 0.0, 0.0, 0.0, 192.0, 0.0, 0.0, 0.0, 0.0, 0.0, 0.0, 0.0, 0.0, 0.0, 1.769163654593045E9, 0.0, 2026-01-23 18:20:54.593
226.0, 33635.352091235174, 10609.210802222588, 5354.9638813691, 21581.27982393263, 9350.18174054405, -11566.871293410219, 31326.72981342433, 30551.593667458736, -58651.08920944801, -30163.612087203514, -135771.4919175496, -54719.14913882603, -554.6808904029001, 2118.4089324961824, -72113.85781930183, -187500.02235174447, 0.0, 0.0, 0.0, 192.0, 0.0, 0.0, 0.0, 0.0, 0.0, 0.0, 0.0, 0.0, 0.0, 1.769163654593139E9, 0.0, 2026-01-23 18:20:54.593
0.0, 16945.438616924122, 5415.000666976055, 2737.708716119375, 10930.003038645154, 4792.504583895753, -5787.38072960147, 15869.984432457022, 15344.293754612656, -29244.284837756735, -15029.35767523738, -67842.6629713372, -27329.79086992632, -266.56690437399203, 1121.9905164230486, -35998.020887138955, -93750.01117587223, 0.0, 0.0, 0.0, 192.0, 0.0, 0.0, 0.0, 0.0, 0.0, 0.0, 0.0, 0.0, 0.0, 1.769163654741267E9, 0.0, 2026-01-23 18:20:54.741
2.0, 33809.53923577538, 10756.106466782865, 5407.892812239267, 21835.08388222264, 9570.949920529118, -11579.991767405483, 31766.00864720448, 30720.259931118482, -59167.906244743615, -30377.63004036308, -137044.66963346835, -55255.27808133103, -549.0706025446179, 2194.6730845776897, -72020.02519607845, -187500.02235174447, 0.0, 0.0, 0.0, 192.0, 0.0, 0.0, 0.0, 0.0, 0.0, 0.0, 0.0, 0.0, 0.0, 1.769163654746225E9, 0.0, 2026-01-23 18:20:54.746
4.0, 33879.65665813168, 10805.682635984736, 5456.552559918471, 21875.071153053184, 9604.90222035673, -11547.71584841202, 31748.32841734033, 30676.942250364096, -59013.8803737021, -30278.0977223036, -136962.01288247263, -55196.8282695804, -527.4788174007914, 2278.3133123294488, -71937.43550031609, -187500.02235174447, 0.0, 0.0, 0.0, 192.0, 0.0, 0.0, 0.0, 0.0, 0.0, 0.0, 0.0, 0.0, 0.0, 1.769163654752199E9, 0.0, 2026-01-23 18:20:54.752
6.0, 33848.02893972742, 10792.204534078186, 5440.056972510454, 21843.644600349024, 9573.453315908113, -11582.3834040622, 31755.548030799393, 30708.569968768355, -59037.327353635716, -30302.215254570874, -136983.96229552774, -55212.47449069912, -533.8490645705539, 2284.1024141433736, -71928.27128508942, -187500.02235174447, 0.0, 0.0, 0.0, 192.0, 0.0, 0.0, 0.0, 0.0, 0.0, 0.0, 0.0, 0.0, 0.0, 1.7691636547582E9, 0.0, 2026-01-23 18:20:54.758
8.0, 33821.22919812551, 10759.928615084722, 5414.0395419644765, 21853.680533609455, 9589.725385871576, -11559.361107273235, 31764.689894281615, 30703.138494865718, -59155.65748878211, -30364.755435556825, -137034.1419618299, -55247.052639371475, -546.3660414655259, 2178.535125080958, -72047.96487664759, -187500.02235174447, 0.0, 0.0, 0.0, 192.0, 0.0, 0.0, 0.0, 0.0, 0.0, 0.0, 0.0, 0.0, 0.0, 1.769163654764257E9, 0.0, 2026-01-23 18:20:54.764
10.0, 33903.528321209946, 10834.918717732276, 5480.401871252283, 21870.645507651032, 9595.738005130053, -11562.467999752522, 31740.974693414533, 30677.523395719934, -58941.192500733436, -30239.183335206908, -136931.74862048015, -55175.21413269212, -520.5944801085568, 2358.2207987571715, -71855.02461850937, -187500.02235174447, 0.0, 0.0, 0.0, 192.0, 0.0, 0.0, 0.0, 0.0, 0.0, 0.0, 0.0, 0.0, 0.0, 1.769163654769282E9, 0.0, 2026-01-23 18:20:54.769
12.0, 33806.05236364035, 10753.625423148325, 5404.651809293247, 21833.809832788687, 9569.720574584077, -11580.95289241706, 31770.14371992871, 30722.338643352825, -59171.70604130102, -30380.133435742075, -137047.88828466993, -55256.75329646508, -549.8305618560985, 2178.1104419363073, -72044.500356257, -187500.02235174447, 0.0, 0.0, 0.0, 192.0, 0.0, 0.0, 0.0, 0.0, 0.0, 0.0, 0.0, 0.0, 0.0, 1.769163654775236E9, 0.0, 2026-01-23 18:20:54.775
14.0, 33877.89087031971, 10804.877973184344, 5455.07734478442, 21873.70769664141, 9603.963447089607, -11548.118179812214, 31751.390606330708, 30678.439817242604, -59016.16025163654, -30279.774103137745, -136964.9856644852, -55198.23642948108, -528.5517011346461, 2297.178184649728, -71926.72901472199, -187500.02235174447, 0.0, 0.0, 0.0, 192.0, 0.0, 0.0, 0.0, 0.0, 0.0, 0.0, 0.0, 0.0, 0.0, 1.769163654798285E9, 0.0, 2026-01-23 18:20:54.798
16.0, 33845.436137370605, 10790.70696719968, 5438.447646909672, 21842.102329981608, 9572.335728685348, -11582.986901162494, 31759.05725467888, 30710.26870134696, -59040.00956297035, -30304.271615060763, -136986.42098741783, -55213.21209826614, -534.2290442262941, 2285.1752978772283, -71928.69596823407, -187500.02235174447, 0.0, 0.0, 0.0, 192.0, 0.0, 0.0, 0.0, 0.0, 0.0, 0.0, 0.0, 0.0, 0.0, 1.769163654804179E9, 0.0, 2026-01-23 18:20:54.804
18.0, 33819.55281729136, 10758.632213906314, 5412.743140786069, 21852.652353364512, 9588.60779864881, -11559.495217739966, 31768.08735943882, 30704.7478204665, -59157.53503531636, -30365.895374524043, -137036.13126708643, -55247.5890812384, -546.3436897210705, 2193.3543316548266, -72033.32448402936, -187500.02235174447, 0.0, 0.0, 0.0, 192.0, 0.0, 0.0, 0.0, 0.0, 0.0, 0.0, 0.0, 0.0, 0.0, 1.769163654809266E9, 0.0, 2026-01-23 18:20:54.809
20.0, 33902.9024723652, 10834.33757237644, 5479.932484618722, 21869.8631965951, 9594.642769651744, -11563.04914510836, 31743.880420193724, 30679.445645743093, -58942.801826334224, -30240.70325382987, -136934.0732019035, -55176.28701642597, -520.7062388308333, 2361.3723947253698, -71856.47748189897, -187500.02235174447, 0.0, 0.0, 0.0, 192.0, 0.0, 0.0, 0.0, 0.0, 0.0, 0.0, 0.0, 0.0, 0.0, 1.769163654815215E9, 0.0, 2026-01-23 18:20:54.815
22.0, 33805.40416305115, 10753.536016170505, 5404.696512782159, 21832.960466499386, 9569.005318761507, -11581.042299394883, 31772.62476356325, 30723.791506742422, -59173.89651225764, -30381.9215752985, -137050.48108702674, -55257.98264241012, -550.814038612132, 2189.353369397327, -72036.40902476419, -187500.02235174447, 0.0, 0.0, 0.0, 192.0, 0.0, 0.0, 0.0, 0.0, 0.0, 0.0, 0.0, 0.0, 0.0, 1.769163654821213E9, 0.0, 2026-01-23 18:20:54.821
24.0, 33877.309724963874, 10804.542697017516, 5454.764420362047, 21872.858330352108, 9603.09172905585, -11548.676973423599, 31754.0951674098, 30680.205605054573, -59017.41194932604, -30281.338725249618, -136967.31024590853, -55199.443423681674, -528.9987360237523, 2295.1888793932058, -71934.3286078368, -187500.02235174447, 0.0, 0.0, 0.0, 192.0, 0.0, 0.0, 0.0, 0.0, 0.0, 0.0, 0.0, 0.0, 0.0, 1.769163654826214E9, 0.0, 2026-01-23 18:20:54.826
26.0, 33846.687835060104, 10791.913961400267, 5438.849978309868, 21841.632943348046, 9571.84399030733, -11583.38923256269, 31761.225373891044, 30711.453343803092, -59041.864757760144, -30306.19386508392, -136989.25965896365, -55214.821423866924, -535.0560587711404, 2288.3939490787925, -71937.61431427173, -187500.02235174447, 0.0, 0.0, 0.0, 192.0, 0.0, 0.0, 0.0, 0.0, 0.0, 0.0, 0.0, 0.0, 0.0, 1.769163654832278E9, 0.0, 2026-01-23 18:20:54.832
28.0, 33819.99985218047, 10759.36982147334, 5412.743140786069, 21851.870042308576, 9587.870191081785, -11560.299880540357, 31770.210775162075, 30705.820704200352, -59158.98789870595, -30367.571755358193, -137038.85817990996, -55249.33251730591, -547.4165734549252, 2195.43304388917, -72039.33710328783, -187500.02235174447, 0.0, 0.0, 0.0, 192.0, 0.0, 0.0, 0.0, 0.0, 0.0, 0.0, 0.0, 0.0, 0.0, 1.769163654855523E9, 0.0, 2026-01-23 18:20:54.855
30.0, 33904.26592877697, 10835.879842743856, 5480.357167763373, 21869.214996005892, 9594.285141740458, -11563.317366041823, 31745.825021961336, 30679.91503237665, -58944.679372868464, -30242.714910830848, -136936.97892868269, -55177.78458330448, -521.555605120135, 2358.0643365459846, -71865.73110410347, -187500.02235174447, 0.0, 0.0, 0.0, 192.0, 0.0, 0.0, 0.0, 0.0, 0.0, 0.0, 0.0, 0.0, 0.0, 1.769163654863399E9, 0.0, 2026-01-23 18:20:54.863
32.0, 33807.88520668569, 10755.502969682571, 5405.8811552382895, 21832.6028385881, 9568.22300770557, -11581.355223817256, 31774.3011443974, 30723.970320698063, -59175.66230006961, -30383.329735199182, -137053.09624112802, -55258.92141567724, -551.0152043122297, 2202.0938637368517, -72028.58591420483, -187500.02235174447, 0.0, 0.0, 0.0, 192.0, 0.0, 0.0, 0.0, 0.0, 0.0, 0.0, 0.0, 0.0, 0.0, 1.769163654866212E9, 0.0, 2026-01-23 18:20:54.866
34.0, 33880.48367267653, 10806.979037163144, 5456.083173284909, 21872.634812907556, 9602.4658802111, -11549.258118779437, 31755.61508603276, 30680.049142843385, -59018.10485340415, -30281.629297927535, -136968.96427499823, -55199.868106826325, -529.1328464904841, 2303.4143213527586, -71926.32668332181, -187500.02235174447, 0.0, 0.0, 0.0, 192.0, 0.0, 0.0, 0.0, 0.0, 0.0, 0.0, 0.0, 0.0, 0.0, 1.769163654872325E9, 0.0, 2026-01-23 18:20:54.872
36.0, 33849.10182346128, 10793.70210095669, 5439.386420176795, 21841.27531543676, 9570.905217040208, -11583.970377918527, 31762.72294076955, 30711.878026947743, -59043.67524906102, -30307.24439707332, -136991.584240387, -55215.939011089686, -535.4807419157913, 2290.1373851463063, -71936.54143053788, -187500.02235174447, 0.0, 0.0, 0.0, 192.0, 0.0, 0.0, 0.0, 0.0, 0.0, 0.0, 0.0, 0.0, 0.0, 1.76916365487828E9, 0.0, 2026-01-23 18:20:54.878
38.0, 33823.10674465975, 10762.811990119457, 5414.732446042592, 21852.048856264217, 9587.691377126142, -11560.411639262635, 31771.261307151475, 30705.910111178175, -59159.90432022862, -30368.06349373621, -137040.62396772194, -55249.73484870611, -547.39422171047, 2211.772169086, -72019.3546437448, -187500.02235174447, 0.0, 0.0, 0.0, 192.0, 0.0, 0.0, 0.0, 0.0, 0.0, 0.0, 0.0, 0.0, 0.0, 1.769163654884255E9, 0.0, 2026-01-23 18:20:54.884
40.0, 33905.74114391102, 10837.869148000378, 5481.005368352577, 21868.65620239451, 9593.368720217792, -11564.077325353304, 31747.1437748842, 30680.384419010214, -58946.28869846925, -30244.100718987076, -136939.23645487268, -55178.85746703833, -522.1591022204283, 2350.487095175635, -71866.46871167049, -187500.02235174447, 0.0, 0.0, 0.0, 192.0, 0.0, 0.0, 0.0, 0.0, 0.0, 0.0, 0.0, 0.0, 0.0, 1.769163654889226E9, 0.0, 2026-01-23 18:20:54.889
42.0, 33809.80745670885, 10757.60403366137, 5406.015265705021, 21832.379321143548, 9567.485400138547, -11582.182238362104, 31775.95517348709, 30724.685576520635, -59177.830419281774, -30385.095523011154, -137056.00196790718, -55260.73190697812, -552.132791534995, 2196.9306107676757, -72024.58495194733, -187500.02235174447, 0.0, 0.0, 0.0, 192.0, 0.0, 0.0, 0.0, 0.0, 0.0, 0.0, 0.0, 0.0, 0.0, 1.769163654895497E9, 0.0, 2026-01-23 18:20:54.895
44.0, 33883.29999247789, 10809.9518191757, 5457.401926207773, 21872.65716465201, 9601.728272644075, -11549.81691239082, 31756.598562788793, 30680.518529476947, -59019.60242028266, -30283.059809572675, -136971.89235352186, -55201.83506033839, -530.071619757607, 2290.0926816573956, -71928.65126474516, -187500.02235174447, 0.0, 0.0, 0.0, 192.0, 0.0, 0.0, 0.0, 0.0, 0.0, 0.0, 0.0, 0.0, 0.0, 1.769163654918492E9, 0.0, 2026-01-23 18:20:54.918
46.0, 33850.331169406316, 10795.42318527975, 5439.565234132438, 21840.761225314287, 9570.122905984272, -11584.685633741097, 31764.57813555934, 30712.950910681597, -59046.692734562486, -30309.412516285483, -136995.2275747332, -55218.33064774641, -536.6206808830119, 2265.3940040342814, -71950.57832605581, -187500.02235174447, 0.0, 0.0, 0.0, 192.0, 0.0, 0.0, 0.0, 0.0, 0.0, 0.0, 0.0, 0.0, 0.0, 1.769163654924325E9, 0.0, 2026-01-23 18:20:54.924
48.0, 33827.17476215062, 10765.628309920825, 5416.140605943276, 21851.959449286398, 9587.110231770306, -11561.350412529757, 31772.28948739642, 30705.865407689264, -59160.574872562276, -30369.15872921452, -137042.76973518965, -55251.455933029174, -548.0424222996738, 2180.3679681262934, -72044.81328067939, -187500.02235174447, 0.0, 0.0, 0.0, 192.0, 0.0, 0.0, 0.0, 0.0, 0.0, 0.0, 0.0, 0.0, 0.0, 1.76916365492964E9, 0.0, 2026-01-23 18:20:54.929
50.0, 33908.69157417912, 10840.14902593482, 5481.8323828974235, 21868.589147161147, 9592.429946950668, -11564.770229431419, 31748.484879551517, 30681.36789576625, -58947.38393394756, -30245.12889923202, -136941.49398106267, -55180.355033916836, -522.4943783872579, 2325.5649001079682, -71891.54736894934, -187500.02235174447, 0.0, 0.0, 0.0, 192.0, 0.0, 0.0, 0.0, 0.0, 0.0, 0.0, 0.0, 0.0, 0.0, 1.769163654935283E9, 0.0, 2026-01-23 18:20:54.935
52.0, 33812.55672127685, 10759.436876706706, 5407.043445949966, 21832.334617654637, 9567.440696649635, -11582.338700573291, 31777.16216768768, 30725.087907920828, -59178.59037859325, -30385.609613133623, -137057.54423827463, -55261.55892152297, -551.8422188570761, 2186.0676629623968, -72043.49452775653, -187500.02235174447, 0.0, 0.0, 0.0, 192.0, 0.0, 0.0, 0.0, 0.0, 0.0, 0.0, 0.0, 0.0, 0.0, 1.769163654941323E9, 0.0, 2026-01-23 18:20:54.941
54.0, 33886.13866402372, 10811.89642094331, 5458.497161686082, 21872.65716465201, 9601.638865666255, -11550.219243791014, 31757.738501756015, 30680.607936454766, -59018.97657143791, -30282.81394038367, -136973.12169946692, -55202.12563301631, -529.8481023130539, 2280.1014518858733, -71951.80767200085, -187500.02235174447, 0.0, 0.0, 0.0, 192.0, 0.0, 0.0, 0.0, 0.0, 0.0, 0.0, 0.0, 0.0, 0.0, 1.769163654948313E9, 0.0, 2026-01-23 18:20:54.948
56.0, 33853.28159967442, 10796.8984004138, 5440.12402774382, 21840.761225314287, 9569.809981561897, -11585.356186074756, 31765.226336148542, 30713.17442812615, -59047.43034212951, -30310.440696530426, -136997.0380660341, -55219.24706926908, -536.8889018164756, 2275.854620439365, -71948.56666905482, -187500.02235174447, 0.0, 0.0, 0.0, 192.0, 0.0, 0.0, 0.0, 0.0, 0.0, 0.0, 0.0, 0.0, 0.0, 1.769163654952397E9, 0.0, 2026-01-23 18:20:54.952
58.0, 33830.14754416318, 10767.438801221706, 5417.369951888318, 21852.36178068659, 9587.13258351476, -11561.126895085205, 31772.982391474536, 30706.200683856096, -59161.64775629613, -30370.253964692827, -137045.29548231311, -55252.707630718665, -548.5788641666012, 2181.8878867492544, -72056.2126703516, -187500.02235174447, 0.0, 0.0, 0.0, 192.0, 0.0, 0.0, 0.0, 0.0, 0.0, 0.0, 0.0, 0.0, 0.0, 1.769163654975366E9, 0.0, 2026-01-23 18:20:54.975
60.0, 33911.82081840287, 10842.138331191341, 5483.03937709801, 21868.924423327975, 9592.51935392849, -11564.971395131517, 31748.909562696168, 30681.457302744067, -58948.188596747954, -30245.84415505459, -136943.75150725266, -55182.0761182399, -523.1649307209171, 2347.3131474629818, -71881.4667322, -187500.02235174447, 0.0, 0.0, 0.0, 192.0, 0.0, 0.0, 0.0, 0.0, 0.0, 0.0, 0.0, 0.0, 0.0, 1.769163654981317E9, 0.0, 2026-01-23 18:20:54.981
62.0, 33815.21657886703, 10761.448533707684, 5408.2280884060965, 21832.938114754932, 9567.84302804983, -11582.226941851013, 31777.56449908787, 30724.953797454098, -59180.0208902384, -30386.68249686748, -137060.29350284263, -55263.548226779494, -552.780992124199, 2187.922857752187, -72047.96487664759, -187500.02235174447, 0.0, 0.0, 0.0, 192.0, 0.0, 0.0, 0.0, 0.0, 0.0, 0.0, 0.0, 0.0, 0.0, 1.769163654987371E9, 0.0, 2026-01-23 18:20:54.987
64.0, 33889.58083266984, 10814.355112833395, 5459.838266353401, 21873.260661752305, 9602.152955788726, -11550.062781579827, 31758.207888389577, 30680.719695177046, -59020.00475168285, -30284.46796947336, -136976.13918496837, -55204.24904873956, -530.9209860469086, 2282.2025158646725, -71949.46073883305, -187500.02235174447, 0.0, 0.0, 0.0, 192.0, 0.0, 0.0, 0.0, 0.0, 0.0, 0.0, 0.0, 0.0, 0.0, 1.769163654992329E9, 0.0, 2026-01-23 18:20:54.992
66.0, 33854.98033225302, 10798.172449847752, 5440.8839870553, 21841.208260203395, 9570.234664706548, -11584.797392463373, 31766.030998948932, 30713.442649059612, -59050.02314448633, -30312.56411225368, -137000.8825660804, -55222.06338907044, -538.0288407836963, 2263.538809244491, -71961.01659071643, -187500.02235174447, 0.0, 0.0, 0.0, 192.0, 0.0, 0.0, 0.0, 0.0, 0.0, 0.0, 0.0, 0.0, 0.0, 1.769163654998348E9, 0.0, 2026-01-23 18:20:54.998
68.0, 33832.60623605326, 10768.93636810021, 5418.174614688709, 21852.89822255352, 9587.579618403866, -11560.90337764065, 31773.67529555265, 30706.04422164491, -59162.89945398563, -30371.6174211046, -137048.17885734784, -55254.78634295301, -549.3835269669923, 2186.5594013404134, -72045.9085161577, -187500.02235174447, 0.0, 0.0, 0.0, 192.0, 0.0, 0.0, 0.0, 0.0, 0.0, 0.0, 0.0, 0.0, 0.0, 1.769163655004399E9, 0.0, 2026-01-23 18:20:55.004
70.0, 33914.52537948196, 10843.725305047668, 5484.022853854043, 21869.61732740609, 9593.100499284328, -11564.747877686963, 31749.55776328537, 30681.569061466347, -58949.57440490418, -30247.162907977454, -136946.813696243, -55183.95366477414, -523.9248900323976, 2343.8039235834985, -71872.12370301769, -187500.02235174447, 0.0, 0.0, 0.0, 192.0, 0.0, 0.0, 0.0, 0.0, 0.0, 0.0, 0.0, 0.0, 0.0, 1.76916365500929E9, 0.0, 2026-01-23 18:20:55.009
72.0, 33817.09412540127, 10762.432010463717, 5408.78688201748, 21833.541611855224, 9567.954786772107, -11582.137534873193, 31777.698609554605, 30725.244370132015, -59182.18900945056, -30389.096485268652, -137064.38387207795, -55266.275139603036, -553.7644688802325, 2174.0647761898967, -72048.23309758105, -187500.02235174447, 0.0, 0.0, 0.0, 192.0, 0.0, 0.0, 0.0, 0.0, 0.0, 0.0, 0.0, 0.0, 0.0, 1.769163655015357E9, 0.0, 2026-01-23 18:20:55.015
74.0, 33890.16197802567, 10814.131595388842, 5459.79356286449, 21873.90886234151, 9602.37647323328, -11550.085133324283, 31758.587868045317, 30681.278488788426, -59020.94352494997, -30285.764370651767, -136978.97785651422, -55206.26070574054, -531.524483147202, 2271.9430651596863, -71956.07685519182, -187500.02235174447, 0.0, 0.0, 0.0, 192.0, 0.0, 0.0, 0.0, 0.0, 0.0, 0.0, 0.0, 0.0, 0.0, 1.769163655038375E9, 0.0, 2026-01-23 18:20:55.038
76.0, 33856.70141657608, 10799.200630092697, 5441.8004085779685, 21842.214088703884, 9570.547589128922, -11584.395061063178, 31766.05335069339, 30713.733221737533, -59051.45365613147, -30314.24049308783, -137004.2353277487, -55224.07504607142, -538.6993931173555, 2271.607788992857, -71952.96996271252, -187500.02235174447, 0.0, 0.0, 0.0, 192.0, 0.0, 0.0, 0.0, 0.0, 0.0, 0.0, 0.0, 0.0, 0.0, 1.769163655044391E9, 0.0, 2026-01-23 18:20:55.044
78.0, 33833.343843620285, 10769.159885544765, 5418.755760044546, 21854.105216754106, 9588.361929459803, -11560.433991007088, 31773.943516486113, 30706.133628622727, -59163.6147098082, -30373.00322926083, -137051.37515680495, -55257.28973833201, -550.2999484896599, 2187.8558025188213, -72048.2554493255, -187500.02235174447, 0.0, 0.0, 0.0, 192.0, 0.0, 0.0, 0.0, 0.0, 0.0, 0.0, 0.0, 0.0, 0.0, 1.76916365504936E9, 0.0, 2026-01-23 18:20:55.049
80.0, 33913.877178892755, 10842.674773058268, 5483.620522453848, 21870.04201055074, 9593.27931323997, -11564.502008497955, 31750.161260385667, 30681.88198588872, -58951.07197178269, -30249.576896378625, -136950.74760326717, -55186.568818875414, -524.684849343878, 2321.0721994724513, -71906.7689069234, -187500.02235174447, 0.0, 0.0, 0.0, 192.0, 0.0, 0.0, 0.0, 0.0, 0.0, 0.0, 0.0, 0.0, 0.0, 1.769163655055336E9, 0.0, 2026-01-23 18:20:55.055
82.0, 33816.44592481207, 10761.470885452138, 5408.608068061837, 21834.435681633437, 9568.737097828043, -11581.690499984086, 31778.302106654897, 30725.490239321025, -59183.641872840155, -30391.39871494755, -137067.82604072406, -55268.53266579303, -554.3903177249811, 2177.596351813835, -72061.93471693216, -187500.02235174447, 0.0, 0.0, 0.0, 192.0, 0.0, 0.0, 0.0, 0.0, 0.0, 0.0, 0.0, 0.0, 0.0, 1.769163655061437E9, 0.0, 2026-01-23 18:20:55.061
84.0, 33890.65371640369, 10814.422168066762, 5460.374708220328, 21875.026449564273, 9603.359949989313, -11549.57104320181, 31758.766682000958, 30681.032619599417, -59022.48579531739, -30287.910138119478, -136982.55413562706, -55209.12172903082, -532.5750151366013, 2300.240373640105, -71934.48507004799, -187500.02235174447, 0.0, 0.0, 0.0, 192.0, 0.0, 0.0, 0.0, 0.0, 0.0, 0.0, 0.0, 0.0, 0.0, 1.76916365506741E9, 0.0, 2026-01-23 18:20:55.067
86.0, 33855.67323633114, 10798.060691125476, 5441.621594622326, 21843.08580673764, 9571.642824607234, -11584.328005829813, 31766.209812904577, 30713.442649059612, -59053.957051510464, -30316.81094370019, -137008.14688302838, -55227.29369727298, -539.8840355734868, 2289.980922935119, -71937.8825352052, -187500.02235174447, 0.0, 0.0, 0.0, 192.0, 0.0, 0.0, 0.0, 0.0, 0.0, 0.0, 0.0, 0.0, 0.0, 1.769163655072482E9, 0.0, 2026-01-23 18:20:55.072
88.0, 33831.9356837196, 10767.79642913299, 5418.331076899895, 21855.28985921024, 9589.52422017148, -11560.054011351349, 31773.80940601938, 30705.954814667086, -59165.29109064235, -30374.992534517354, -137054.92908417335, -55259.65902324427, -550.9481490788638, 2203.323209681894, -72034.08444334083, -187500.02235174447, 0.0, 0.0, 0.0, 192.0, 0.0, 0.0, 0.0, 0.0, 0.0, 0.0, 0.0, 0.0, 0.0, 1.769163655095461E9, 0.0, 2026-01-23 18:20:55.095
90.0, 33912.17844631415, 10841.423075368772, 5483.4193567537495, 21871.67368789598, 9594.553362673923, -11564.032621864393, 31750.04950166339, 30681.613764955255, -58953.55301541722, -30251.499146401784, -136954.30153063554, -55189.34043518787, -525.5118638887244, 2341.926377049253, -71884.43951421256, -187500.02235174447, 0.0, 0.0, 0.0, 192.0, 0.0, 0.0, 0.0, 0.0, 0.0, 0.0, 0.0, 0.0, 0.0, 1.769163655101449E9, 0.0, 2026-01-23 18:20:55.101
92.0, 33814.322509088815, 10758.788676117501, 5407.602239561348, 21835.5532688562, 9569.966443773084, -11581.109354628248, 31778.726789799548, 30725.646701532212, -59185.96645426351, -30393.25390973734, -137071.58113379256, -55271.34898559439, -555.3067392476487, 2164.0064911850086, -72071.30009785893, -187500.02235174447, 0.0, 0.0, 0.0, 192.0, 0.0, 0.0, 0.0, 0.0, 0.0, 0.0, 0.0, 0.0, 0.0, 1.769163655107464E9, 0.0, 2026-01-23 18:20:55.107
94.0, 33888.7985216139, 10812.276400599052, 5459.815914608946, 21876.18874027595, 9604.499888956534, -11548.788732145875, 31758.699626767593, 30680.630288199223, -59023.558679051246, -30288.915966619967, -136985.75043508416, -55211.02162730952, -533.1561604924393, 2278.246257096083, -71954.9369162246, -187500.02235174447, 0.0, 0.0, 0.0, 192.0, 0.0, 0.0, 0.0, 0.0, 0.0, 0.0, 0.0, 0.0, 0.0, 1.76916365511262E9, 0.0, 2026-01-23 18:20:55.112
96.0, 33851.80638454037, 10794.618522479359, 5439.766399832535, 21844.046931749217, 9572.626301363267, -11583.500991284965, 31766.589792560317, 30713.755573481987, -59054.91817652204, -30318.017937900775, -137011.36553422996, -55229.35005776287, -540.0181460402187, 2259.291977797983, -71966.93980299709, -187500.02235174447, 0.0, 0.0, 0.0, 192.0, 0.0, 0.0, 0.0, 0.0, 0.0, 0.0, 0.0, 0.0, 0.0, 1.769163655119065E9, 0.0, 2026-01-23 18:20:55.119
98.0, 33829.499343573974, 10766.477676210126, 5417.951097244156, 21856.809777833198, 9590.641807394244, -11558.914072384128, 31773.60824031928, 30705.41837280016, -59165.64871855363, -30375.819549062202, -137057.2983690856, -55261.60362501188, -551.4175357124252, 2179.160973925707, -72057.88905118573, -187500.02235174447, 0.0, 0.0, 0.0, 192.0, 0.0, 0.0, 0.0, 0.0, 0.0, 0.0, 0.0, 0.0, 0.0, 1.76916365512439E9, 0.0, 2026-01-23 18:20:55.124
100.0, 33908.46805673457, 10838.472645100672, 5481.899438130789, 21872.72421988538, 9595.648598152233, -11563.183255575092, 31750.22831561903, 30681.7925789109, -58953.91064332851, -30252.773195835736, -136956.9390364813, -55191.44149916667, -526.2047679668389, 2349.3918596973253, -71875.43176119706, -187500.02235174447, 0.0, 0.0, 0.0, 192.0, 0.0, 0.0, 0.0, 0.0, 0.0, 0.0, 0.0, 0.0, 0.0, 1.769163655129895E9, 0.0, 2026-01-23 18:20:55.129
102.0, 33809.40512530865, 10756.486446438605, 5406.462300594128, 21837.252001434805, 9571.642824607234, -11579.81295344984, 31778.52562409945, 30724.842038731822, -59186.48054438598, -30394.483255682382, -137074.352750105, -55273.338290850916, -555.9102363479419, 2182.893715249743, -72050.49062377104, -187500.02235174447, 0.0, 0.0, 0.0, 192.0, 0.0, 0.0, 0.0, 0.0, 0.0, 0.0, 0.0, 0.0, 0.0, 1.769163655135443E9, 0.0, 2026-01-23 18:20:55.135
104.0, 33882.8976610777, 10808.744824975112, 5458.050126796977, 21877.99923157683, 9606.04215932395, -11547.648793178654, 31758.766682000958, 30680.49617773249, -59022.88812671759, -30289.81003639818, -136987.87385080743, -55212.94387733268, -533.4243814259031, 2282.537792031502, -71948.45491033256, -187500.02235174447, 0.0, 0.0, 0.0, 192.0, 0.0, 0.0, 0.0, 0.0, 0.0, 0.0, 0.0, 0.0, 0.0, 1.769163655159439E9, 0.0, 2026-01-23 18:20:55.159
106.0, 33847.85012577178, 10791.221057322153, 5438.537053887493, 21845.99153351683, 9574.302682197414, -11582.67397674012, 31766.701551282593, 30713.04031765942, -59056.66161258955, -30319.76137396829, -137014.20420577578, -55231.92050837523, -540.5992913960566, 2257.861466152843, -71970.7395995545, -187500.02235174447, 0.0, 0.0, 0.0, 192.0, 0.0, 0.0, 0.0, 0.0, 0.0, 0.0, 0.0, 0.0, 0.0, 1.769163655164469E9, 0.0, 2026-01-23 18:20:55.164
108.0, 33827.331224361806, 10763.46019070866, 5417.347600143862, 21858.93319355645, 9592.742871373042, -11558.064706094827, 31773.18355717463, 30704.5466547664, -59165.15698017562, -30375.752493828833, -137059.53354353114, -55262.788267468015, -551.4845909457912, 2182.7149012941004, -72057.08438838535, -187500.02235174447, 0.0, 0.0, 0.0, 192.0, 0.0, 0.0, 0.0, 0.0, 0.0, 0.0, 0.0, 0.0, 0.0, 1.76916365517045E9, 0.0, 2026-01-23 18:20:55.170
110.0, 33906.121123566765, 10836.013953210588, 5481.452403241683, 21874.601766419622, 9597.526144686479, -11562.490351496977, 31749.66952200765, 30680.898509132687, -58953.12833227257, -30252.46027141336, -136958.83893476, -55192.4249759227, -526.070657500107, 2335.086743245929, -71892.53084570538, -187500.02235174447, 0.0, 0.0, 0.0, 192.0, 0.0, 0.0, 0.0, 0.0, 0.0, 0.0, 0.0, 0.0, 0.0, 1.769163655176444E9, 0.0, 2026-01-23 18:20:55.176
112.0, 33808.35459331925, 10753.9383475707, 5405.948210471655, 21839.151899713506, 9573.073336252373, -11579.142401116182, 31777.877423510246, 30723.903265464698, -59186.502896130434, -30394.43855219347, -137076.47616582827, -55275.17113389625, -555.9772915813079, 2157.479781804059, -72075.52457756098, -187500.02235174447, 0.0, 0.0, 0.0, 192.0, 0.0, 0.0, 0.0, 0.0, 0.0, 0.0, 0.0, 0.0, 0.0, 1.769163655182437E9, 0.0, 2026-01-23 18:20:55.182
114.0, 33881.89183257721, 10807.13549937433, 5457.848961096878, 21880.055592066718, 9607.7185401581, -11547.201758289548, 31758.00672268948, 30679.579756209823, -59022.3293331062, -30289.43005674244, -136989.84080431948, -55213.99440932208, -533.4243814259031, 2285.4658705551474, -71944.85627947525, -187500.02235174447, 0.0, 0.0, 0.0, 192.0, 0.0, 0.0, 0.0, 0.0, 0.0, 0.0, 0.0, 0.0, 0.0, 1.769163655187555E9, 0.0, 2026-01-23 18:20:55.187
116.0, 33845.8384687708, 10789.23175206563, 5437.777094576013, 21847.578507373157, 9575.688490353643, -11581.95872091755, 31766.209812904577, 30712.481524048035, -59056.54985386728, -30319.76137396829, -137016.5958424325, -55233.08279908691, -540.5098844182354, 2273.3288733159156, -71952.56763131233, -187500.02235174447, 0.0, 0.0, 0.0, 192.0, 0.0, 0.0, 0.0, 0.0, 0.0, 0.0, 0.0, 0.0, 0.0, 1.769163655193504E9, 0.0, 2026-01-23 18:20:55.193
118.0, 33826.12423016122, 10762.074382552431, 5416.989972232577, 21861.16836800198, 9594.307493484914, -11557.103581083249, 31772.513004840974, 30703.585529754822, -59165.64871855363, -30376.40069441804, -137062.1039941435, -55264.82227621345, -551.9316258348973, 2199.366950913304, -72033.61505670728, -187500.02235174447, 0.0, 0.0, 0.0, 192.0, 0.0, 0.0, 0.0, 0.0, 0.0, 0.0, 0.0, 0.0, 0.0, 1.769163655215472E9, 0.0, 2026-01-23 18:20:55.215
120.0, 33904.780018899444, 10834.359924120894, 5481.027720097032, 21876.769885631787, 9599.18017377617, -11561.685688696587, 31748.61899001825, 30680.026791098928, -58953.82123635069, -30253.443748169393, -136962.079937706, -55194.79426083497, -526.6070993670344, 2361.215932514183, -71858.84676681123, -187500.02235174447, 0.0, 0.0, 0.0, 192.0, 0.0, 0.0, 0.0, 0.0, 0.0, 0.0, 0.0, 0.0, 0.0, 1.7691636552221E9, 0.0, 2026-01-23 18:20:55.222
122.0, 33808.511055530435, 10753.491312681594, 5406.350541871851, 21841.744702070322, 9575.04028976444, -11578.29303482688, 31776.804539776393, 30722.964492197574, -59188.045166497854, -30396.003174305344, -137079.94068621882, -55277.40630834178, -556.8713613595202, 2200.663352091712, -72026.21662929257, -187500.02235174447, 0.0, 0.0, 0.0, 192.0, 0.0, 0.0, 0.0, 0.0, 0.0, 0.0, 0.0, 0.0, 0.0, 1.769163655227524E9, 0.0, 2026-01-23 18:20:55.227
124.0, 33883.255288988985, 10807.336665074428, 5458.877141341823, 21882.402525234524, 9609.57373494789, -11546.464150722522, 31756.62091453325, 30678.30570677587, -59022.68696101749, -30290.592347454116, -136992.70182760977, -55216.45310121216, -534.072582015107, 2315.4172081252586, -71911.64158721466, -187500.02235174447, 0.0, 0.0, 0.0, 192.0, 0.0, 0.0, 0.0, 0.0, 0.0, 0.0, 0.0, 0.0, 0.0, 1.769163655233554E9, 0.0, 2026-01-23 18:20:55.233
126.0, 33847.76071879396, 10789.835249165923, 5438.760571332046, 21849.99249577433, 9577.677795610165, -11581.288168583891, 31764.555783814885, 30711.386288569724, -59057.71214457895, -30321.549513524715, -137019.88154886742, -55235.56384272145, -541.6498233854561, 2283.923600187731, -71935.15562238164, -187500.02235174447, 0.0, 0.0, 0.0, 192.0, 0.0, 0.0, 0.0, 0.0, 0.0, 0.0, 0.0, 0.0, 0.0, 1.769163655238542E9, 0.0, 2026-01-23 18:20:55.238
128.0, 33829.05230868486, 10763.571949430938, 5418.465187366627, 21863.71646686989, 9596.363853974803, -11556.4777322385, 31770.926030984647, 30701.97620415404, -59165.64871855363, -30377.317115940707, -137064.8979622004, -55266.99039542561, -552.3339572350928, 2201.445663147648, -72026.77542290396, -187500.02235174447, 0.0, 0.0, 0.0, 192.0, 0.0, 0.0, 0.0, 0.0, 0.0, 0.0, 0.0, 0.0, 0.0, 1.769163655244521E9, 0.0, 2026-01-23 18:20:55.244
130.0, 33907.48457997854, 10835.410456110294, 5482.078252086431, 21878.960356588406, 9601.080072054872, -11561.149246829658, 31747.32258883984, 30678.819796898344, -58954.93882357345, -30254.628390625527, -136965.00801622964, -55197.0294352805, -527.1211894895065, 2352.454048687702, -71865.23936572544, -187500.02235174447, 0.0, 0.0, 0.0, 192.0, 0.0, 0.0, 0.0, 0.0, 0.0, 0.0, 0.0, 0.0, 0.0, 1.769163655250447E9, 0.0, 2026-01-23 18:20:55.250
132.0, 33810.38860206468, 10753.491312681594, 5406.328190127396, 21843.80106256021, 9576.537856642944, -11577.57777900431, 31775.70930429808, 30722.22688463055, -59188.31338743131, -30396.807837105735, -137082.108805431, -55279.01563394257, -556.7819543816989, 2171.2261046440726, -72058.06786514138, -187500.02235174447, 0.0, 0.0, 0.0, 192.0, 0.0, 0.0, 0.0, 0.0, 0.0, 0.0, 0.0, 0.0, 0.0, 1.769163655255595E9, 0.0, 2026-01-23 18:20:55.255
134.0, 33887.36800996876, 10808.968342419666, 5460.1735425202305, 21885.107086313616, 9611.250115782037, -11545.726543155497, 31754.989237188012, 30676.986953853007, -59022.30698136175, -30290.61469919857, -136994.60172588847, -55217.615391923835, -534.0502302706517, 2284.415338565748, -71947.06910217632, -187500.02235174447, 0.0, 0.0, 0.0, 192.0, 0.0, 0.0, 0.0, 0.0, 0.0, 0.0, 0.0, 0.0, 0.0, 1.769163655278814E9, 0.0, 2026-01-23 18:20:55.278
136.0, 33851.78403279591, 10791.355167788885, 5440.12402774382, 21852.585298131144, 9579.46593516659, -11580.617616250232, 31763.1476239142, 30710.402811813692, -59058.5391591238, -30322.063603647188, -137022.31788901304, -55237.21787181114, -541.7392303632773, 2270.1325738588066, -71960.63661106069, -187500.02235174447, 0.0, 0.0, 0.0, 192.0, 0.0, 0.0, 0.0, 0.0, 0.0, 0.0, 0.0, 0.0, 0.0, 1.769163655284442E9, 0.0, 2026-01-23 18:20:55.284
138.0, 33835.847238999275, 10767.438801221706, 5421.840300779379, 21866.398676204524, 9598.442566209145, -11555.4272002491, 31768.48969083902, 30699.964547153064, -59164.50877958641, -30376.847729307145, -137066.48493605675, -55267.61624427036, -552.1774950239056, 2179.563305325902, -72062.31469658788, -187500.02235174447, 0.0, 0.0, 0.0, 192.0, 0.0, 0.0, 0.0, 0.0, 0.0, 0.0, 0.0, 0.0, 0.0, 1.769163655290532E9, 0.0, 2026-01-23 18:20:55.290
140.0, 33908.915091623676, 10834.874014243367, 5481.653568941781, 21880.435571722457, 9602.175307533182, -11560.81397066283, 31746.808498717368, 30678.55157596488, -58955.43056195147, -30255.209535981365, -136967.1314319529, -55198.16937424772, -527.2552999562383, 2318.658211071278, -71911.9768633815, -187500.02235174447, 0.0, 0.0, 0.0, 192.0, 0.0, 0.0, 0.0, 0.0, 0.0, 0.0, 0.0, 0.0, 0.0, 1.769163655295478E9, 0.0, 2026-01-23 18:20:55.295
142.0, 33815.507151544945, 10756.240577249597, 5408.138681428276, 21846.013885261284, 9578.41540317719, -11576.974281904017, 31774.032923463932, 30720.438745074123, -59188.69336708706, -30397.09840978365, -137084.366331621, -55280.33438686543, -556.938416592886, 2173.0365959449528, -72063.45463555511, -187500.02235174447, 0.0, 0.0, 0.0, 192.0, 0.0, 0.0, 0.0, 0.0, 0.0, 0.0, 0.0, 0.0, 0.0, 1.769163655301505E9, 0.0, 2026-01-23 18:20:55.301
144.0, 33891.3466204818, 10810.75648197609, 5461.22407450963, 21886.738763658854, 9612.926496616185, -11545.234804777481, 31753.804594731882, 30675.6905526746, -59021.63642902809, -30290.56999570966, -136996.56867940055, -55218.77768263551, -534.29609945966, 2280.503783286069, -71958.04380870388, -187500.02235174447, 0.0, 0.0, 0.0, 192.0, 0.0, 0.0, 0.0, 0.0, 0.0, 0.0, 0.0, 0.0, 0.0, 1.76916365530753E9, 0.0, 2026-01-23 18:20:55.307
146.0, 33855.31560841985, 10792.651568967292, 5440.414600421739, 21854.328734198658, 9580.583522389355, -11580.036470894394, 31762.164147158164, 30709.106410635282, -59059.85791204667, -30323.09178389213, -137024.97774660322, -55238.64838345628, -541.6498233854561, 2258.643777208779, -71975.6346315902, -187500.02235174447, 0.0, 0.0, 0.0, 192.0, 0.0, 0.0, 0.0, 0.0, 0.0, 0.0, 0.0, 0.0, 0.0, 1.769163655313561E9, 0.0, 2026-01-23 18:20:55.313
148.0, 33841.725747791024, 10770.70215591218, 5424.142530458275, 21868.678554138965, 9599.761319132009, -11555.091924082271, 31766.947420471603, 30697.952890152086, -59163.14532317464, -30376.221880462395, -137067.6472267684, -55268.55501753748, -551.8422188570761, 2172.723671522578, -72065.3098303449, -187500.02235174447, 0.0, 0.0, 0.0, 192.0, 0.0, 0.0, 0.0, 0.0, 0.0, 0.0, 0.0, 0.0, 0.0, 1.769163655335585E9, 0.0, 2026-01-23 18:20:55.335
150.0, 33913.72071668157, 10837.310354388996, 5483.106432331376, 21882.603690934622, 9603.494060456045, -11560.456342751544, 31745.445042305597, 30676.964602108554, -58954.692954384445, -30254.9413150479, -136968.96427499823, -55199.219906237115, -527.300003445149, 2330.8175600549653, -71892.26262477192, -187500.02235174447, 0.0, 0.0, 0.0, 192.0, 0.0, 0.0, 0.0, 0.0, 0.0, 0.0, 0.0, 0.0, 0.0, 1.769163655341565E9, 0.0, 2026-01-23 18:20:55.341
152.0, 33820.11161090274, 10758.162827272752, 5409.815062262423, 21848.02554226226, 9579.75650784451, -11576.81781969283, 31772.915336241167, 30719.008233428984, -59187.95575952003, -30397.143113272563, -137086.33328513303, -55281.295511877004, -556.7372508927883, 2151.176589867662, -72078.5644148069, -187500.02235174447, 0.0, 0.0, 0.0, 192.0, 0.0, 0.0, 0.0, 0.0, 0.0, 0.0, 0.0, 0.0, 0.0, 1.769163655347576E9, 0.0, 2026-01-23 18:20:55.347
154.0, 33896.84514961781, 10813.23752561063, 5463.03456581051, 21888.973938104384, 9614.200546050137, -11545.167749544114, 31752.754062742482, 30674.192985796093, -59021.30115286126, -30290.56999570966, -136998.22270849024, -55219.73880764709, -533.9161198039199, 2246.886759625287, -71989.00097477448, -187500.02235174447, 0.0, 0.0, 0.0, 192.0, 0.0, 0.0, 0.0, 0.0, 0.0, 0.0, 0.0, 0.0, 0.0, 1.769163655353712E9, 0.0, 2026-01-23 18:20:55.353
156.0, 33859.80830905537, 10794.797336435002, 5442.426257422717, 21856.206280732906, 9581.902275312219, -11580.282340083402, 31761.113615168768, 30707.564140267867, -59059.32147017974, -30323.04708040322, -137026.63177569292, -55239.34128753439, -541.6274716410007, 2241.678803167201, -71990.05150676388, -187500.02235174447, 0.0, 0.0, 0.0, 192.0, 0.0, 0.0, 0.0, 0.0, 0.0, 0.0, 0.0, 0.0, 0.0, 1.769163655358564E9, 0.0, 2026-01-23 18:20:55.358
158.0, 33846.330207148814, 10772.266778024052, 5425.595393847871, 21870.444341950937, 9600.90125809923, -11555.4272002491, 31766.299219882396, 30696.567081995858, -59163.167674919096, -30377.004191518332, -137069.88240121395, -55269.560846037966, -552.0433845571738, 2168.834467987355, -72072.48474031505, -187500.02235174447, 0.0, 0.0, 0.0, 192.0, 0.0, 0.0, 0.0, 0.0, 0.0, 0.0, 0.0, 0.0, 0.0, 1.769163655364518E9, 0.0, 2026-01-23 18:20:55.364
160.0, 33917.07347834986, 10837.980906722654, 5483.642874198303, 21884.011850835308, 9604.321075000891, -11560.545749729366, 31745.2438766055, 30676.249346285982, -58954.62589915108, -30255.120129003542, -136970.55124885455, -55199.845755081864, -527.0094307672299, 2332.7845135670323, -71892.86612187221, -187500.02235174447, 0.0, 0.0, 0.0, 192.0, 0.0, 0.0, 0.0, 0.0, 0.0, 0.0, 0.0, 0.0, 0.0, 1.769163655370627E9, 0.0, 2026-01-23 18:20:55.370
162.0, 33823.9337592046, 10759.928615084722, 5411.491443096572, 21850.014847518785, 9580.80703983391, -11576.706060970553, 31772.222432163053, 30717.533018294936, -59187.26285544191, -30397.143113272563, -137087.71909328928, -55281.6978432772, -556.357271237048, 2186.738215296056, -72044.38859753474, -187500.02235174447, 0.0, 0.0, 0.0, 192.0, 0.0, 0.0, 0.0, 0.0, 0.0, 0.0, 0.0, 0.0, 0.0, 1.769163655376529E9, 0.0, 2026-01-23 18:20:55.376
164.0, 33899.057972318886, 10813.639857010825, 5463.816876866445, 21890.717374171898, 9614.982857106073, -11544.966583844016, 31752.61995227575, 30672.9412881066, -59019.80358598276, -30290.212367798373, -136999.76497885765, -55220.05173206946, -533.491436659269, 2299.212193395161, -71930.81938395732, -187500.02235174447, 0.0, 0.0, 0.0, 192.0, 0.0, 0.0, 0.0, 0.0, 0.0, 0.0, 0.0, 0.0, 0.0, 1.769163655398534E9, 0.0, 2026-01-23 18:20:55.398
166.0, 33861.61880035625, 10794.75263294609, 5442.873292311823, 21857.860309822598, 9582.617531134789, -11580.215284850035, 31760.800690746393, 30706.40184955619, -59058.852083546175, -30323.315301336683, -137028.57637746053, -55240.72709569062, -541.8062855966432, 2262.175352832717, -71967.40918963065, -187500.02235174447, 0.0, 0.0, 0.0, 192.0, 0.0, 0.0, 0.0, 0.0, 0.0, 0.0, 0.0, 0.0, 0.0, 1.769163655404642E9, 0.0, 2026-01-23 18:20:55.404
168.0, 33848.297160660884, 10773.250254780085, 5427.562347359937, 21872.835978607654, 9602.04119706645, -11555.13662757118, 31765.069873937355, 30694.778942439432, -59160.8654452402, -30375.841900806656, -137070.48589831425, -55269.47143906015, -551.5292944347018, 2182.2231629160838, -72057.84434769682, -187500.02235174447, 0.0, 0.0, 0.0, 192.0, 0.0, 0.0, 0.0, 0.0, 0.0, 0.0, 0.0, 0.0, 0.0, 1.769163655410596E9, 0.0, 2026-01-23 18:20:55.410
170.0, 33916.246463805015, 10836.505691588603, 5483.575818964937, 21885.934100858463, 9605.304551756924, -11560.501046240455, 31744.70743473857, 30675.35527650777, -58952.927166572474, -30254.874259814533, -136971.66883607733, -55200.15867950424, -526.5623958781238, 2337.1878072247277, -71890.34037474876, -187500.02235174447, 0.0, 0.0, 0.0, 192.0, 0.0, 0.0, 0.0, 0.0, 0.0, 0.0, 0.0, 0.0, 0.0, 1.769163655416678E9, 0.0, 2026-01-23 18:20:55.416
172.0, 33821.676233014616, 10756.978184816622, 5410.418559362717, 21851.51241439729, 9581.790516589943, -11576.661357481642, 31771.9989147185, 30717.153038639193, -59186.927579275085, -30397.456037694938, -137089.73075029024, -55282.41309909977, -556.5360851926905, 2180.122098937285, -72053.88808892824, -187500.02235174447, 0.0, 0.0, 0.0, 192.0, 0.0, 0.0, 0.0, 0.0, 0.0, 0.0, 0.0, 0.0, 0.0, 1.769163655421646E9, 0.0, 2026-01-23 18:20:55.421
174.0, 33896.06283856188, 10810.644723253814, 5462.8781035993225, 21892.259644539314, 9616.189851306659, -11544.899528610651, 31752.172917386644, 30672.36014275076, -59018.32837084871, -30289.586518953627, -137000.4355311913, -55220.007028580556, -533.6702506149114, 2281.5543152754685, -71950.26540163344, -187500.02235174447, 0.0, 0.0, 0.0, 192.0, 0.0, 0.0, 0.0, 0.0, 0.0, 0.0, 0.0, 0.0, 0.0, 1.769163655428022E9, 0.0, 2026-01-23 18:20:55.428
176.0, 33856.03086424242, 10790.528153244037, 5440.973394033122, 21859.402580190013, 9583.84687707983, -11580.014119149939, 31760.91244946867, 30706.290090833914, -59058.360345168156, -30323.024728658766, -137029.9398338723, -55240.347116034885, -541.0910297740734, 2255.9168643852313, -71974.09236122279, -187500.02235174447, 0.0, 0.0, 0.0, 192.0, 0.0, 0.0, 0.0, 0.0, 0.0, 0.0, 0.0, 0.0, 0.0, 1.769163655433598E9, 0.0, 2026-01-23 18:20:55.433
178.0, 33843.066852458345, 10768.93636810021, 5425.349524658862, 21874.490007697346, 9603.315246500402, -11554.801351404352, 31765.583964059828, 30694.868349417255, -59160.03843069535, -30375.30545893973, -137071.8046512371, -55269.44908731569, -551.1046112900509, 2183.340750138849, -72055.83269069585, -187500.02235174447, 0.0, 0.0, 0.0, 192.0, 0.0, 0.0, 0.0, 0.0, 0.0, 0.0, 0.0, 0.0, 0.0, 1.769163655456614E9, 0.0, 2026-01-23 18:20:55.456
180.0, 33911.73141142505, 10833.152929920308, 5482.659397442269, 21887.69988867043, 9606.422138979691, -11560.612804962731, 31744.685082994114, 30674.59531719629, -58952.591890405645, -30255.120129003542, -136973.70284482275, -55200.58336264889, -526.6741546004004, 2330.7058013326887, -71895.01188933992, -187500.02235174447, 0.0, 0.0, 0.0, 192.0, 0.0, 0.0, 0.0, 0.0, 0.0, 0.0, 0.0, 0.0, 0.0, 1.76916365546162E9, 0.0, 2026-01-23 18:20:55.461
182.0, 33815.708317245044, 10751.613766147348, 5408.295143639462, 21852.76411208679, 9582.885752068252, -11576.43784003709, 31772.80357751889, 30717.041279916917, -59185.67588158559, -30396.74078187237, -137090.8036340241, -55282.16722991076, -555.9325880923973, 2160.2066946276063, -72071.76948449248, -187500.02235174447, 0.0, 0.0, 0.0, 192.0, 0.0, 0.0, 0.0, 0.0, 0.0, 0.0, 0.0, 0.0, 0.0, 1.769163655467662E9, 0.0, 2026-01-23 18:20:55.467
184.0, 33891.12310303725, 10807.515479030071, 5462.296958243484, 21893.868970140098, 9617.016865851507, -11544.586604188276, 31752.66465576466, 30672.248384028484, -59016.60728652564, -30288.915966619967, -137001.5307666696, -55219.559993691444, -532.9773465367969, 2266.176315090217, -71961.77655002792, -187500.02235174447, 0.0, 0.0, 0.0, 192.0, 0.0, 0.0, 0.0, 0.0, 0.0, 0.0, 0.0, 0.0, 0.0, 1.769163655473617E9, 0.0, 2026-01-23 18:20:55.473
186.0, 33850.93466650661, 10786.437784008716, 5439.74404808808, 21860.38605694605, 9584.18215324666, -11580.081174383304, 31761.806519246882, 30706.40184955619, -59057.57803411222, -30323.404708314505, -137031.16917981734, -55240.79415092399, -540.8004570961543, 2250.3289282714045, -71973.80178854488, -187500.02235174447, 0.0, 0.0, 0.0, 192.0, 0.0, 0.0, 0.0, 0.0, 0.0, 0.0, 0.0, 0.0, 0.0, 1.769163655478629E9, 0.0, 2026-01-23 18:20:55.478
188.0, 33837.970654722536, 10765.024812820533, 5424.276640925007, 21875.451132708924, 9603.628170922777, -11554.778999659897, 31766.23216464903, 30694.75659069498, -59159.07730568377, -30375.193700217453, -137073.1010524155, -55269.29262510451, -551.0822595455957, 2181.57496232688, -72054.87156568427, -187500.02235174447, 0.0, 0.0, 0.0, 192.0, 0.0, 0.0, 0.0, 0.0, 0.0, 0.0, 0.0, 0.0, 0.0, 1.769163655484701E9, 0.0, 2026-01-23 18:20:55.484
190.0, 33907.68574567864, 10829.956630463199, 5482.033548597521, 21888.839827637654, 9606.71271165761, -11560.568101473822, 31745.310931838863, 30674.751779407477, -58952.27896598327, -30255.142480747996, -136975.04394949006, -55200.85158358236, -526.3612301780261, 2327.040115242018, -71899.95162486454, -187500.02235174447, 0.0, 0.0, 0.0, 192.0, 0.0, 0.0, 0.0, 0.0, 0.0, 0.0, 0.0, 0.0, 0.0, 1.769163655490729E9, 0.0, 2026-01-23 18:20:55.490
192.0, 33810.83563695379, 10748.640984134792, 5407.02109420551, 21853.74758884282, 9583.288083468447, -11576.460191781545, 31773.67529555265, 30717.35420433929, -59186.41348915261, -30397.54544467276, -137092.59177358053, -55283.24011364462, -555.8655328590313, 2159.983177183053, -72074.47404557158, -187500.02235174447, 0.0, 0.0, 0.0, 192.0, 0.0, 0.0, 0.0, 0.0, 0.0, 0.0, 0.0, 0.0, 0.0, 1.769163655496661E9, 0.0, 2026-01-23 18:20:55.496
194.0, 33887.70328613559, 10804.296827828506, 5461.22407450963, 21894.651281196035, 9617.329790273881, -11545.078342566294, 31752.8434697203, 30671.98016309502, -59016.003789425355, -30288.915966619967, -137002.7377608702, -55220.141139047286, -532.9996982812522, 2264.3658237893374, -71969.71141930955, -187500.02235174447, 0.0, 0.0, 0.0, 192.0, 0.0, 0.0, 0.0, 0.0, 0.0, 0.0, 0.0, 0.0, 0.0, 1.769163655518636E9, 0.0, 2026-01-23 18:20:55.518
196.0, 33847.179573438116, 10783.979092118632, 5438.9840887765995, 21861.16836800198, 9584.539781157944, -11580.349395316767, 31762.0970919248, 30706.379497811737, -59057.98036551242, -30323.404708314505, -137032.77850541813, -55241.19648232419, -540.7557536072437, 2257.1909138191836, -71973.66767807814, -187500.02235174447, 0.0, 0.0, 0.0, 192.0, 0.0, 0.0, 0.0, 0.0, 0.0, 0.0, 0.0, 0.0, 0.0, 1.769163655524668E9, 0.0, 2026-01-23 18:20:55.524
198.0, 33834.19320990959, 10762.119086041343, 5423.02494323551, 21876.211092020403, 9604.030502322972, -11555.04722059336, 31766.925068727145, 30695.024811628442, -59158.049125438825, -30374.590203117157, -137073.88336347145, -55269.24792161559, -550.5234659342129, 2159.4914388050365, -72080.4643130856, -187500.02235174447, 0.0, 0.0, 0.0, 192.0, 0.0, 0.0, 0.0, 0.0, 0.0, 0.0, 0.0, 0.0, 0.0, 1.769163655530678E9, 0.0, 2026-01-23 18:20:55.530
200.0, 33903.86359737678, 10826.76033100609, 5480.267760785551, 21888.638661937555, 9606.71271165761, -11560.925729385106, 31746.540277783904, 30675.60114569678, -58952.01074504981, -30254.918963303444, -136976.31799892403, -55200.896287071264, -525.8918435444646, 2331.599871110901, -71894.56485445081, -187500.02235174447, 0.0, 0.0, 0.0, 192.0, 0.0, 0.0, 0.0, 0.0, 0.0, 0.0, 0.0, 0.0, 0.0, 1.769163655536758E9, 0.0, 2026-01-23 18:20:55.536
202.0, 33809.04749739737, 10746.94225155619, 5406.507004083038, 21854.17227198747, 9583.221028235082, -11577.130744115204, 31774.43525486413, 30717.398907828203, -59185.83234379678, -30397.009002805833, -137093.77641603668, -55282.99424445561, -555.5973119255676, 2153.054136401908, -72080.84429274134, -187500.02235174447, 0.0, 0.0, 0.0, 192.0, 0.0, 0.0, 0.0, 0.0, 0.0, 0.0, 0.0, 0.0, 0.0, 1.769163655541651E9, 0.0, 2026-01-23 18:20:55.541
204.0, 33884.998725056495, 10802.843964438911, 5460.8887983428, 21894.830095151676, 9617.218031551603, -11545.90535711114, 31753.8940017097, 30672.427197984125, -59015.31088534724, -30288.312469519675, -137003.7882928596, -55219.82821462491, -532.1950354808612, 2294.5183270595467, -71940.45298581755, -187500.02235174447, 0.0, 0.0, 0.0, 192.0, 0.0, 0.0, 0.0, 0.0, 0.0, 0.0, 0.0, 0.0, 0.0, 1.769163655547639E9, 0.0, 2026-01-23 18:20:55.547
206.0, 33846.21844842654, 10783.75557467408, 5439.721696343625, 21861.32483021317, 9584.405670691212, -11581.019947650428, 31762.544126813907, 30707.07240188985, -59059.05324924627, -30324.32112983717, -137035.03603160812, -55241.75527593557, -540.6439948849672, 2255.6262917073122, -71970.20315768757, -187500.02235174447, 0.0, 0.0, 0.0, 192.0, 0.0, 0.0, 0.0, 0.0, 0.0, 0.0, 0.0, 0.0, 0.0, 1.769163655553718E9, 0.0, 2026-01-23 18:20:55.553
208.0, 33831.51100057495, 10761.247368007585, 5422.779074046502, 21875.831112364664, 9604.030502322972, -11555.918938627117, 31767.975600716545, 30695.762419195467, -59158.65262253912, -30374.85842405062, -137075.8950204724, -55269.627901271335, -550.165838022928, 2169.5720755543803, -72064.50516754451, -187500.02235174447, 0.0, 0.0, 0.0, 192.0, 0.0, 0.0, 0.0, 0.0, 0.0, 0.0, 0.0, 0.0, 0.0, 1.769163655577366E9, 0.0, 2026-01-23 18:20:55.577
210.0, 33900.42142873066, 10824.927487960755, 5479.597208451893, 21887.878702626076, 9605.818641879398, -11562.378592774701, 31747.47905105103, 30676.674029430633, -58953.642422395045, -30255.74597784829, -136978.46376639174, -55201.678598127204, -525.8247883110987, 2319.7310948051327, -71900.28690103137, -187500.02235174447, 0.0, 0.0, 0.0, 192.0, 0.0, 0.0, 0.0, 0.0, 0.0, 0.0, 0.0, 0.0, 0.0, 1.76916365558165E9, 0.0, 2026-01-23 18:20:55.581
212.0, 33806.45469504055, 10745.757609100057, 5406.6411145497705, 21853.41231267599, 9582.639882879244, -11577.913055171139, 31775.1505106867, 30718.22592237305, -59187.352262419736, -30397.88072083959, -137095.6539625709, -55283.28481713353, -555.1726287809169, 2156.675119003668, -72066.22625186757, -187500.02235174447, 0.0, 0.0, 0.0, 192.0, 0.0, 0.0, 0.0, 0.0, 0.0, 0.0, 0.0, 0.0, 0.0, 1.769163655588072E9, 0.0, 2026-01-23 18:20:55.588
214.0, 33883.59056515581, 10801.23463883813, 5460.419411709239, 21893.891321884552, 9616.458072240124, -11546.62061293371, 31755.212754632565, 30673.455378229068, -59015.73556849189, -30288.491283475316, -137005.3752667159, -55220.05173206946, -531.9715180363081, 2279.430899552214, -71943.24695387446, -187500.02235174447, 0.0, 0.0, 0.0, 192.0, 0.0, 0.0, 0.0, 0.0, 0.0, 0.0, 0.0, 0.0, 0.0, 1.769163655593736E9, 0.0, 2026-01-23 18:20:55.593
216.0, 33843.826811769824, 10781.632158950826, 5438.3358881873955, 21860.14018775704, 9583.824525335374, -11582.338700573291, 31764.488728581517, 30708.525265279444, -59061.243720202896, -30325.61753101558, -137037.53942698712, -55242.82815966942, -540.6216431405119, 2254.754573673555, -71964.36935238473, -187500.02235174447, 0.0, 0.0, 0.0, 192.0, 0.0, 0.0, 0.0, 0.0, 0.0, 0.0, 0.0, 0.0, 0.0, 1.769163655599715E9, 0.0, 2026-01-23 18:20:55.599
218.0, 33832.11449767524, 10761.046202307487, 5423.606088591348, 21875.04880130873, 9603.337598244858, -11556.745953171963, 31768.981429217034, 30696.45532327358, -59160.10548592872, -30376.19952871794, -137078.04078794012, -55270.678433260735, -550.7246316343108, 2194.3154566664048, -72036.96781837558, -187500.02235174447, 0.0, 0.0, 0.0, 192.0, 0.0, 0.0, 0.0, 0.0, 0.0, 0.0, 0.0, 0.0, 0.0, 1.769163655604782E9, 0.0, 2026-01-23 18:20:55.604
220.0, 33899.70617290809, 10824.23458388264, 5479.41839449625, 21886.738763658854, 9605.438662223658, -11562.95973813054, 31749.311894096365, 30677.813968397855, -58955.117637529096, -30257.221192982342, -136980.98951351517, -55202.930295816695, -526.2047679668389, 2339.6241473703562, -71878.18102576506, -187500.02235174447, 0.0, 0.0, 0.0, 192.0, 0.0, 0.0, 0.0, 0.0, 0.0, 0.0, 0.0, 0.0, 0.0, 1.769163655610868E9, 0.0, 2026-01-23 18:20:55.610
222.0, 33805.650032240155, 10745.17646374422, 5406.484652338583, 21852.585298131144, 9581.790516589943, -11578.561255760344, 31777.09511245431, 30719.455268318092, -59188.91688453161, -30399.311232484728, -137098.42557888335, -55284.89414273431, -555.8208293701207, 2161.6819097616567, -72064.88514720024, -187500.02235174447, 0.0, 0.0, 0.0, 192.0, 0.0, 0.0, 0.0, 0.0, 0.0, 0.0, 0.0, 0.0, 0.0, 1.769163655616769E9, 0.0, 2026-01-23 18:20:55.616
224.0, 33882.964716311064, 10801.502859771594, 5461.313481487451, 21892.930196872974, 9615.653409439732, -11547.604089689743, 31756.643266277704, 30674.617668940744, -59016.696693503465, -30289.60887069808, -137007.90101383938, -55221.16931929223, -532.4856081587801, 2288.9080392012643, -71935.66971250412, -187500.02235174447, 0.0, 0.0, 0.0, 192.0, 0.0, 0.0, 0.0, 0.0, 0.0, 0.0, 0.0, 0.0, 0.0, 1.769163655639749E9, 0.0, 2026-01-23 18:20:55.639
226.0, 33843.044500713884, 10781.140420572809, 5438.782923076502, 21859.00024878982, 9582.70693811261, -11582.964549418039, 31765.695722782104, 30709.218169357562, -59062.87539754813, -30326.869228705076, -137039.86400841046, -55243.5881189809, -541.0016227962521, 2273.1947628491835, -71944.85627947525, -187500.02235174447, 0.0, 0.0, 0.0, 192.0, 0.0, 0.0, 0.0, 0.0, 0.0, 0.0, 0.0, 0.0, 0.0, 1.769163655644791E9, 0.0, 2026-01-23 18:20:55.644
228.0, 33832.65093954217, 10761.873216852335, 5424.634268836292, 21874.601766419622, 9602.577638933379, -11557.416505505624, 31770.38958911772, 30696.902358162686, -59159.8149132508, -30375.953659528932, -137079.29248562962, -55271.03606117202, -550.4117072119365, 2196.6623898342123, -72034.03973985193, -187500.02235174447, 0.0, 0.0, 0.0, 192.0, 0.0, 0.0, 0.0, 0.0, 0.0, 0.0, 0.0, 0.0, 0.0, 1.769163655650721E9, 0.0, 2026-01-23 18:20:55.650
230.0, 33900.55553919739, 10825.218060638674, 5480.625388696836, 21886.157618303016, 9604.365778489802, -11564.144380586671, 31750.496536552495, 30678.73038992052, -58955.162341018004, -30257.422358682437, -136982.62119086043, -55203.131461516794, -526.070657500107, 2348.542493408024, -71872.23546173995, -187500.02235174447, 0.0, 0.0, 0.0, 192.0, 0.0, 0.0, 0.0, 0.0, 0.0, 0.0, 0.0, 0.0, 0.0, 1.769163655656759E9, 0.0, 2026-01-23 18:20:55.656
232.0, 33804.84536943977, 10745.020001533032, 5406.574059316405, 21851.400655675014, 9580.80703983391, -11579.477677283012, 31778.972658988558, 30720.684614263133, -59189.87800954319, -30399.892377840566, -137100.52664286215, -55285.38588111233, -555.7090706478442, 2168.5885987983465, -72062.22528961007, -187500.02235174447, 0.0, 0.0, 0.0, 192.0, 0.0, 0.0, 0.0, 0.0, 0.0, 0.0, 0.0, 0.0, 0.0, 1.769163655662367E9, 0.0, 2026-01-23 18:20:55.662
234.0, 33881.35539071028, 10800.675845226748, 5461.022908809532, 21891.365574761105, 9614.401711750235, -11548.85578737924, 31758.654923278682, 30676.115235819252, -59017.85898421514, -30290.19001605392, -137009.95737432927, -55221.61635418134, -532.5303116476907, 2275.2287715946163, -71956.38977961418, -187500.02235174447, 0.0, 0.0, 0.0, 192.0, 0.0, 0.0, 0.0, 0.0, 0.0, 0.0, 0.0, 0.0, 0.0, 1.769163655667813E9, 0.0, 2026-01-23 18:20:55.667
236.0, 33842.19513442458, 10781.051013594988, 5438.961737032144, 21857.592088889134, 9581.477592167568, -11584.10448838526, 31767.66267629417, 30710.31340483587, -59064.864702804654, -30327.986815927845, -137042.36740378945, -55244.75040969258, -541.2251402408052, 2254.7769254180107, -71975.23230019001, -187500.02235174447, 0.0, 0.0, 0.0, 192.0, 0.0, 0.0, 0.0, 0.0, 0.0, 0.0, 0.0, 0.0, 0.0, 1.769163655673745E9, 0.0, 2026-01-23 18:20:55.673
238.0, 33830.30400637436, 10760.17448427373, 5423.695495569169, 21872.455998951915, 9601.258886010515, -11558.645851450665, 31772.915336241167, 30698.936366908118, -59161.267776640394, -30376.892432796056, -137081.63941879742, -55271.7960204835, -550.4340589563917, 2178.3339593808605, -72060.32539133137, -187500.02235174447, 0.0, 0.0, 0.0, 192.0, 0.0, 0.0, 0.0, 0.0, 0.0, 0.0, 0.0, 0.0, 0.0, 1.769163655696812E9, 0.0, 2026-01-23 18:20:55.696
240.0, 33897.13572229573, 10822.558203048493, 5478.569028206948, 21883.497760712835, 9602.823508122387, -11565.440781765079, 31753.491670309508, 30681.032619599417, -58958.33628873066, -30258.830518583123, -136985.50456589516, -55204.36080746184, -526.1824162223836, 2317.8759000153423, -71911.35101453675, -187500.02235174447, 0.0, 0.0, 0.0, 192.0, 0.0, 0.0, 0.0, 0.0, 0.0, 0.0, 0.0, 0.0, 0.0, 1.769163655701877E9, 0.0, 2026-01-23 18:20:55.701
242.0, 33803.68307872809, 10743.969469543634, 5406.149376171753, 21849.411350418493, 9579.37652818877, -11580.796430205874, 31780.87255726726, 30722.47275381956, -59193.074309000294, -30401.412296463528, -137103.27590743016, -55286.414061357274, -555.9996433257631, 2149.9472439226206, -72087.23689165556, -187500.02235174447, 0.0, 0.0, 0.0, 192.0, 0.0, 0.0, 0.0, 0.0, 0.0, 0.0, 0.0, 0.0, 0.0, 1.769163655707769E9, 0.0, 2026-01-23 18:20:55.707
244.0, 33880.1483965097, 10799.513554515072, 5460.084135542409, 21889.510379971314, 9613.127662316283, -11550.196892046559, 31760.86774597976, 30677.791616653398, -59019.62477202711, -30290.90527187649, -137012.10314179698, -55222.53277570401, -532.3962011809589, 2274.267646583038, -71962.31299189484, -187500.02235174447, 0.0, 0.0, 0.0, 192.0, 0.0, 0.0, 0.0, 0.0, 0.0, 0.0, 0.0, 0.0, 0.0, 1.769163655713811E9, 0.0, 2026-01-23 18:20:55.713
246.0, 33840.36229137925, 10779.665205438758, 5437.777094576013, 21855.51337665479, 9579.935321800152, -11585.065613396837, 31770.456644351085, 30712.436820559124, -59067.50220865038, -30328.8585339616, -137045.00490963517, -55245.6891829597, -541.0463262851628, 2249.926596871209, -71983.25657644946, -187500.02235174447, 0.0, 0.0, 0.0, 192.0, 0.0, 0.0, 0.0, 0.0, 0.0, 0.0, 0.0, 0.0, 0.0, 1.769163655719887E9, 0.0, 2026-01-23 18:20:55.719
248.0, 33830.0357854409, 10760.241539507097, 5423.695495569169, 21871.04783905123, 9599.515449943001, -11559.76343867343, 31774.65877230868, 30700.143361108705, -59163.03356445236, -30377.38417117407, -137083.7628345207, -55272.08659316142, -550.2105415118386, 2168.409784842704, -72076.57510955038, -187500.02235174447, 0.0, 0.0, 0.0, 192.0, 0.0, 0.0, 0.0, 0.0, 0.0, 0.0, 0.0, 0.0, 0.0, 1.769163655724801E9, 0.0, 2026-01-23 18:20:55.724
250.0, 33895.57110018386, 10822.066464670475, 5478.5466764624925, 21881.776676389778, 9601.258886010515, -11566.625424221209, 31755.52567905494, 30682.373724266738, -58960.12442828708, -30259.255201727774, -136987.51622289614, -55204.74078711758, -526.0259540111964, 2320.9827924946303, -71911.79804942585, -187500.02235174447, 0.0, 0.0, 0.0, 192.0, 0.0, 0.0, 0.0, 0.0, 0.0, 0.0, 0.0, 0.0, 0.0, 1.769163655730768E9, 0.0, 2026-01-23 18:20:55.730
252.0, 33802.40902929414, 10743.65654512126, 5405.478823838094, 21847.80202481771, 9578.191885732638, -11581.846962195274, 31783.66652532417, 30723.679748020146, -59194.23659971197, -30401.613462163627, -137104.95228826432, -55286.90579973529, -556.0219950702185, 2159.357328338305, -72080.57607180788, -187500.02235174447, 0.0, 0.0, 0.0, 192.0, 0.0, 0.0, 0.0, 0.0, 0.0, 0.0, 0.0, 0.0, 0.0, 1.769163655737189E9, 0.0, 2026-01-23 18:20:55.737
254.0, 33880.461320932074, 10801.078176626943, 5461.045260553988, 21888.661013682013, 9612.010075093518, -11550.778037402397, 31762.924106469647, 30678.68568643161, -59020.07180691622, -30290.882920132033, -137013.086618553, -55222.30925825945, -531.7256488472997, 2276.525172773024, -71959.02728545992, -187500.02235174447, 0.0, 0.0, 0.0, 192.0, 0.0, 0.0, 0.0, 0.0, 0.0, 0.0, 0.0, 0.0, 0.0, 1.769163655780199E9, 0.0, 2026-01-23 18:20:55.780
0.0, 33840.474050101526, 10780.827496150434, 5438.246481209574, 21854.485196409845, 9578.974196788573, -11585.95968317505, 31772.356542629786, 30713.66616650417, -59068.21746447295, -30329.082051406152, -137046.32366255805, -55245.33155504842, -540.7334018627885, 2246.0373933359856, -71980.59671885929, -187500.02235174447, 0.0, 0.0, 0.0, 192.0, 0.0, 0.0, 0.0, 0.0, 0.0, 0.0, 0.0, 0.0, 0.0, 1.769163655784836E9, 0.0, 2026-01-23 18:20:55.784
2.0, 33832.09214593079, 10762.521417441538, 5425.21541419213, 21870.176121017474, 9599.247229009537, -11560.121066584716, 31776.58102233184, 30700.769209953454, -59162.63123305217, -30377.115950240608, -137084.52279383218, -55271.84072397241, -549.651747900456, 2172.388395355749, -72063.38758032174, -187500.02235174447, 0.0, 0.0, 0.0, 192.0, 0.0, 0.0, 0.0, 0.0, 0.0, 0.0, 0.0, 0.0, 0.0, 1.769163655790856E9, 0.0, 2026-01-23 18:20:55.790
4.0, 33898.65564091869, 10825.262764127585, 5480.290112530007, 21881.12847580057, 9600.767147632498, -11567.251273065958, 31757.269115122454, 30683.22309055604, -58960.772628876286, -30259.903402316977, -136989.23730721918, -55205.366635962324, -525.8024365666433, 2327.8000745534987, -71892.62025268319, -187500.02235174447, 0.0, 0.0, 0.0, 192.0, 0.0, 0.0, 0.0, 0.0, 0.0, 0.0, 0.0, 0.0, 0.0, 1.76916365579683E9, 0.0, 2026-01-23 18:20:55.796
6.0, 33801.045572882365, 10742.449550920672, 5403.73538777058, 21846.058588750195, 9577.364871187792, -11582.71868022903, 31786.460493381084, 30726.294902121415, -59195.309483445824, -30402.418124964017, -137106.82983479855, -55287.48694509113, -555.5302566922018, 2172.388395355749, -72054.22336509507, -187500.02235174447, 0.0, 0.0, 0.0, 192.0, 0.0, 0.0, 0.0, 0.0, 0.0, 0.0, 0.0, 0.0, 0.0, 1.769163655802955E9, 0.0, 2026-01-23 18:20:55.802
8.0, 33884.12700702274, 10804.408586550784, 5463.056917554965, 21887.85635088162, 9611.652447182232, -11551.4262379916, 31764.33226637033, 30679.333887020814, -59022.44109182848, -30291.575824210147, -137015.344144743, -55223.002162337565, -531.748000591755, 2276.2569518395608, -71948.79018649939, -187500.02235174447, 0.0, 0.0, 0.0, 192.0, 0.0, 0.0, 0.0, 0.0, 0.0, 0.0, 0.0, 0.0, 0.0, 1.76916365580791E9, 0.0, 2026-01-23 18:20:55.807
10.0, 33854.06391073035, 10792.115127100364, 5446.762495847046, 21855.04399002123, 9579.04125202194, -11586.563180275343, 31771.57423157385, 30711.65450950319, -59067.658670861565, -30329.171458383975, -137047.7988776921, -55246.158569593266, -540.4428291848694, 2250.507742227047, -71969.55495709837, -187500.02235174447, 0.0, 0.0, 0.0, 192.0, 0.0, 0.0, 0.0, 0.0, 0.0, 0.0, 0.0, 0.0, 0.0, 1.769163655814019E9, 0.0, 2026-01-23 18:20:55.814
12.0, 33825.40897433865, 10756.8887778388, 5418.509890855538, 21867.069228538185, 9597.772013875487, -11560.970432874017, 31781.18548168963, 30705.26191058897, -59165.08992494225, -30378.032371763275, -137086.73561653323, -55272.98066293963, -549.8976170894643, 2201.8032910589327, -72027.35656825978, -187500.02235174447, 0.0, 0.0, 0.0, 192.0, 0.0, 0.0, 0.0, 0.0, 0.0, 0.0, 0.0, 0.0, 0.0, 1.769163655819916E9, 0.0, 2026-01-23 18:20:55.819
14.0, 33915.53120798245, 10839.14319743433, 5490.527211490537, 21882.916615356997, 9601.705920899622, -11567.251273065958, 31755.458623821574, 30679.870328887744, -58961.71140214341, -30260.104568017076, -136990.51135665315, -55205.59015340688, -525.2883464441712, 2338.886539803331, -71881.6678979001, -187500.02235174447, 0.0, 0.0, 0.0, 192.0, 0.0, 0.0, 0.0, 0.0, 0.0, 0.0, 0.0, 0.0, 0.0, 1.769163655824842E9, 0.0, 2026-01-23 18:20:55.824
16.0, 33806.074715384806, 10746.383457944807, 5405.277658137997, 21845.23157420535, 9576.873132809775, -11582.495162784477, 31788.025115492957, 30726.853695732796, -59194.50482064544, -30401.702869141445, -137107.74625632123, -55287.35283462439, -554.9267595919084, 2170.399090099226, -72055.98915290703, -187500.02235174447, 0.0, 0.0, 0.0, 192.0, 0.0, 0.0, 0.0, 0.0, 0.0, 0.0, 0.0, 0.0, 0.0, 1.769163655830838E9, 0.0, 2026-01-23 18:20:55.830
18.0, 33888.5973559138, 10807.940162174722, 5464.018042566543, 21887.118743314593, 9611.250115782037, -11551.4262379916, 31766.209812904577, 30680.429122499125, -59023.893955218075, -30291.821693399157, -137016.8417116215, -55223.38214199331, -531.0998000025511, 2271.250161081572, -71955.85333774726, -187500.02235174447, 0.0, 0.0, 0.0, 192.0, 0.0, 0.0, 0.0, 0.0, 0.0, 0.0, 0.0, 0.0, 0.0, 1.769163655836999E9, 0.0, 2026-01-23 18:20:55.836
20.0, 33859.003646254976, 10796.026682380043, 5447.9694900476325, 21854.440492920934, 9579.13065899976, -11586.652587253164, 31773.205908919088, 30712.772096725956, -59069.335051695714, -30329.52908629526, -137049.67642422635, -55246.44914227118, -539.9957942957633, 2255.0674980959297, -71965.19636692958, -187500.02235174447, 0.0, 0.0, 0.0, 192.0, 0.0, 0.0, 0.0, 0.0, 0.0, 0.0, 0.0, 0.0, 0.0, 1.769163655842841E9, 0.0, 2026-01-23 18:20:55.842
22.0, 33832.002738952964, 10761.60499591887, 5420.745065301069, 21866.93511807145, 9597.66025515321, -11561.216302063025, 31783.10773171279, 30705.865407689264, -59167.54861683233, -30378.83703456367, -137089.3060671456, -55273.91943620676, -549.6070444115454, 2178.5574768254137, -72050.64708598221, -187500.02235174447, 0.0, 0.0, 0.0, 192.0, 0.0, 0.0, 0.0, 0.0, 0.0, 0.0, 0.0, 0.0, 0.0, 1.769163655847837E9, 0.0, 2026-01-23 18:20:55.847
24.0, 33921.02973711846, 10843.188863180741, 5492.002426624587, 21881.933138600965, 9600.923609843685, -11567.832418421796, 31757.313818611365, 30681.569061466347, -58964.23714926686, -30261.020989539742, -136992.76888284314, -55206.528926674, -525.4448086553584, 2325.6766588302444, -71890.18391253757, -187500.02235174447, 0.0, 0.0, 0.0, 192.0, 0.0, 0.0, 0.0, 0.0, 0.0, 0.0, 0.0, 0.0, 0.0, 1.769163655854018E9, 0.0, 2026-01-23 18:20:55.854
26.0, 33812.80259046586, 10751.859635336355, 5407.311666883429, 21844.426911404957, 9576.649615365222, -11582.919845929127, 31789.589737604827, 30727.926579466653, -59196.82940206878, -30402.552235430747, -137109.84732030003, -55288.51512533607, -554.971463080819, 2150.260168344995, -72077.33506886185, -187500.02235174447, 0.0, 0.0, 0.0, 192.0, 0.0, 0.0, 0.0, 0.0, 0.0, 0.0, 0.0, 0.0, 0.0, 1.769163655859878E9, 0.0, 2026-01-23 18:20:55.859
28.0, 33895.81696937287, 10813.014008166076, 5465.448554211683, 21886.403487492025, 9611.071301826394, -11551.85092113625, 31767.61797280526, 30681.88198588872, -59026.17383315252, -30292.961632366376, -137019.41216223387, -55224.812653638444, -531.8821110584869, 2266.310425556949, -71960.79307327188, -187500.02235174447, 0.0, 0.0, 0.0, 192.0, 0.0, 0.0, 0.0, 0.0, 0.0, 0.0, 0.0, 0.0, 0.0, 1.769163655879886E9, 0.0, 2026-01-23 18:20:55.879
30.0, 33866.267963202954, 10801.212287093675, 5449.779981348513, 21853.591126631633, 9578.795382832932, -11587.323139586824, 31774.569365330863, 30714.046146159908, -59072.59840638619, -30331.496039807327, -137052.89507542792, -55248.438447527704, -540.6663466294225, 2263.158829588751, -71955.16043366915, -187500.02235174447, 0.0, 0.0, 0.0, 192.0, 0.0, 0.0, 0.0, 0.0, 0.0, 0.0, 0.0, 0.0, 0.0, 1.769163655884947E9, 0.0, 2026-01-23 18:20:55.884
32.0, 33839.758794278954, 10768.46698146665, 5423.337867657884, 21866.465731437893, 9598.04023480895, -11561.23865380748, 31783.86769102427, 30706.737125723022, -59168.30857614381, -30378.904089797034, -137090.4013026239, -55274.23236062913, -549.428230455903, 2173.95301746762, -72055.96680116258, -187500.02235174447, 0.0, 0.0, 0.0, 192.0, 0.0, 0.0, 0.0, 0.0, 0.0, 0.0, 0.0, 0.0, 0.0, 1.769163655890905E9, 0.0, 2026-01-23 18:20:55.890
34.0, 33927.91407441069, 10848.463874872194, 5493.365883036361, 21881.6649176675, 9601.191830777148, -11567.787714932885, 31758.341998856307, 30682.463131244556, -58965.466495211906, -30261.333913962117, -136994.7805398441, -55207.266534241026, -525.6012708665456, 2293.534850303513, -71927.35486356674, -187500.02235174447, 0.0, 0.0, 0.0, 192.0, 0.0, 0.0, 0.0, 0.0, 0.0, 0.0, 0.0, 0.0, 0.0, 1.769163655897548E9, 0.0, 2026-01-23 18:20:55.897
36.0, 33820.5809975363, 10757.469923194638, 5409.345675628862, 21845.097463738617, 9577.521333398978, -11582.450459295567, 31790.52851087195, 30728.373614355758, -59199.04222476986, -30403.848636609157, -137112.6636401014, -55289.56565732547, -555.1502770364615, 2155.2446073585284, -72075.4128188387, -187500.02235174447, 0.0, 0.0, 0.0, 192.0, 0.0, 0.0, 0.0, 0.0, 0.0, 0.0, 0.0, 0.0, 0.0, 1.769163655902922E9, 0.0, 2026-01-23 18:20:55.902
38.0, 33903.79654214341, 10819.47366231366, 5468.778964135524, 21887.163446803504, 9612.255944282526, -11551.470941480511, 31767.930897227634, 30681.21143355506, -59026.911440719545, -30293.207501555386, -137021.37911574592, -55225.527909461016, -531.6362418694785, 2285.5776292774235, -71946.7338260095, -187500.02235174447, 0.0, 0.0, 0.0, 192.0, 0.0, 0.0, 0.0, 0.0, 0.0, 0.0, 0.0, 0.0, 0.0, 1.769163655907921E9, 0.0, 2026-01-23 18:20:55.907
40.0, 33873.666390617655, 10807.13549937433, 5452.283376727507, 21854.149920243017, 9579.868266566786, -11586.451421553067, 31774.994048475513, 30713.956739182086, -59075.213560487464, -30332.747737496822, -137055.73374697374, -55250.02542138403, -540.9345675628862, 2262.3541667883596, -71962.15652968366, -187500.02235174447, 0.0, 0.0, 0.0, 192.0, 0.0, 0.0, 0.0, 0.0, 0.0, 0.0, 0.0, 0.0, 0.0, 1.769163655913953E9, 0.0, 2026-01-23 18:20:55.913
42.0, 33847.87247751623, 10774.144324558298, 5426.042428736977, 21867.449208193924, 9599.224877265082, -11560.255177051447, 31783.599470090805, 30706.737125723022, -59169.180294177575, -30379.351124686138, -137092.63647706943, -55275.707575763176, -549.6964513893666, 2203.993762015553, -72027.28951302642, -187500.02235174447, 0.0, 0.0, 0.0, 192.0, 0.0, 0.0, 0.0, 0.0, 0.0, 0.0, 0.0, 0.0, 0.0, 1.769163655937116E9, 0.0, 2026-01-23 18:20:55.937
44.0, 33935.31250182539, 10854.163569708297, 5495.735167948624, 21882.04489732324, 9602.37647323328, -11567.273624810414, 31758.38670234522, 30682.619593455744, -58967.545207446245, -30262.809129096167, -136997.64156313438, -55209.14408077527, -525.6683260999115, 2343.17807473875, -71877.33165947576, -187500.02235174447, 0.0, 0.0, 0.0, 192.0, 0.0, 0.0, 0.0, 0.0, 0.0, 0.0, 0.0, 0.0, 0.0, 1.769163655942953E9, 0.0, 2026-01-23 18:20:55.942
46.0, 33826.839485983786, 10762.454362208171, 5411.446739607661, 21845.61155386109, 9578.482458410557, -11581.735203472997, 31790.28264168294, 30728.50772482249, -59201.47856491549, -30405.413258721026, -137115.65877385842, -55291.84553525991, -555.7537741367548, 2155.5351800364474, -72078.74322876254, -187500.02235174447, 0.0, 0.0, 0.0, 192.0, 0.0, 0.0, 0.0, 0.0, 0.0, 0.0, 0.0, 0.0, 0.0, 1.769163655948005E9, 0.0, 2026-01-23 18:20:55.948
48.0, 33910.23384454654, 10824.94983970521, 5470.65651066977, 21888.124571815082, 9613.351179760835, -11550.778037402397, 31767.66267629417, 30681.636116699712, -59028.163138409036, -30294.012164355776, -137023.7036971693, -55227.36075250635, -531.5915383805678, 2273.731204716111, -71957.01562845893, -187500.02235174447, 0.0, 0.0, 0.0, 192.0, 0.0, 0.0, 0.0, 0.0, 0.0, 0.0, 0.0, 0.0, 0.0, 1.769163655954087E9, 0.0, 2026-01-23 18:20:55.954
50.0, 33880.08134127633, 10811.158813376285, 5453.579777905915, 21855.245155721328, 9581.097612511827, -11585.780869219407, 31774.837586264326, 30714.292015348914, -59076.91229306607, -30334.155897397508, -137058.68417724184, -55251.724153962634, -541.1804367518946, 2250.7536114160553, -71971.11957921024, -187500.02235174447, 0.0, 0.0, 0.0, 192.0, 0.0, 0.0, 0.0, 0.0, 0.0, 0.0, 0.0, 0.0, 0.0, 1.769163655959962E9, 0.0, 2026-01-23 18:20:55.959
52.0, 33854.93562876411, 10779.374632760839, 5428.389361904784, 21869.103237283616, 9600.543630187945, -11559.4281625066, 31783.174786946154, 30706.133628622727, -59170.990785478454, -30380.62517412009, -137095.7657212932, -55277.58512229742, -550.2775967452046, 2168.7227092650783, -72066.22625186757, -187500.02235174447, 0.0, 0.0, 0.0, 192.0, 0.0, 0.0, 0.0, 0.0, 0.0, 0.0, 0.0, 0.0, 0.0, 1.769163655966052E9, 0.0, 2026-01-23 18:20:55.966
54.0, 33942.80033621792, 10860.645575600336, 5499.043226128009, 21884.101257813127, 9603.829336622875, -11566.04427886537, 31757.514984311463, 30682.01609635545, -58970.070954569695, -30264.664323885958, -137001.39665620288, -55211.44631045417, -526.137712733473, 2330.6834495882335, -71891.65912767162, -187500.02235174447, 0.0, 0.0, 0.0, 192.0, 0.0, 0.0, 0.0, 0.0, 0.0, 0.0, 0.0, 0.0, 0.0, 1.769163655971754E9, 0.0, 2026-01-23 18:20:55.971
56.0, 33838.77531752292, 10771.663280923758, 5416.721751299114, 21847.913783539985, 9580.5611706449, -11580.885837183696, 31788.472150382062, 30726.451364332603, -59202.90907656063, -30406.620252921613, -137118.58685238205, -55293.56661958297, -555.9102363479419, 2185.352407139827, -72036.63254220874, -187500.02235174447, 0.0, 0.0, 0.0, 192.0, 0.0, 0.0, 0.0, 0.0, 0.0, 0.0, 0.0, 0.0, 0.0, 1.769163655977062E9, 0.0, 2026-01-23 18:20:55.977
58.0, 33918.36987952827, 10831.074217685964, 5473.562237448959, 21889.28686252676, 9614.893450128253, -11549.883967624184, 31766.835661749326, 30680.98791611051, -59027.5819930532, -30294.50390273379, -137026.40825824838, -55228.88067112931, -532.0609250141293, 2289.0421496679965, -71929.65709324564, -187500.02235174447, 0.0, 0.0, 0.0, 192.0, 0.0, 0.0, 0.0, 0.0, 0.0, 0.0, 0.0, 0.0, 0.0, 1.769163655999963E9, 0.0, 2026-01-23 18:20:55.999
60.0, 33876.50506216348, 10809.504784286593, 5449.422353437228, 21855.26750746578, 9581.94697880113, -11584.886799441196, 31776.11163569828, 30716.147210138704, -59082.25435999088, -30336.8604584766, -137062.5957325215, -55254.89810167529, -541.8509890855538, 2254.374594017815, -71959.96605872703, -187500.02235174447, 0.0, 0.0, 0.0, 192.0, 0.0, 0.0, 0.0, 0.0, 0.0, 0.0, 0.0, 0.0, 0.0, 1.769163656005956E9, 0.0, 2026-01-23 18:20:56.005
62.0, 33871.27475396094, 10793.746804445602, 5438.715867843136, 21873.19360651894, 9603.762281389509, -11557.796485161363, 31778.592679332818, 30701.104486120283, -59170.499047100435, -30380.424008419992, -137097.8220817831, -55279.08268917593, -550.3223002341152, 2169.214447643095, -72061.48768204304, -187500.02235174447, 0.0, 0.0, 0.0, 192.0, 0.0, 0.0, 0.0, 0.0, 0.0, 0.0, 0.0, 0.0, 0.0, 1.76916365601101E9, 0.0, 2026-01-23 18:20:56.011
64.0, 33938.687615238145, 10856.510502876105, 5493.209420825175, 21883.698926412933, 9604.879868612274, -11565.5301887429, 31758.744330256504, 30683.78188416742, -58970.58504469217, -30265.066655286155, -137003.6765341373, -55213.2344500106, -526.6965063448556, 2312.6232400683452, -71909.2723023024, -187500.02235174447, 0.0, 0.0, 0.0, 192.0, 0.0, 0.0, 0.0, 0.0, 0.0, 0.0, 0.0, 0.0, 0.0, 1.769163656017042E9, 0.0, 2026-01-23 18:20:56.017
66.0, 33846.08433795981, 10777.698251926691, 5420.052161222954, 21851.221841719373, 9583.42219393518, -11579.075345882815, 31786.259327680986, 30724.059727675885, -59205.166602750614, -30407.179046532998, -137121.29141346115, -55295.488869606124, -556.2231607703162, 2155.1999038696176, -72075.4575223276, -187500.02235174447, 0.0, 0.0, 0.0, 192.0, 0.0, 0.0, 0.0, 0.0, 0.0, 0.0, 0.0, 0.0, 0.0, 1.769163656023031E9, 0.0, 2026-01-23 18:20:56.023
68.0, 33925.92476915417, 10836.930374733254, 5476.535019461515, 21892.6172724506, 9617.620362951799, -11548.341697256768, 31764.689894281615, 30678.93155562062, -59026.710275019446, -30294.168626566963, -137027.9505286158, -55230.31118277445, -532.1726837364058, 2281.6213705088344, -71946.68912252059, -187500.02235174447, 0.0, 0.0, 0.0, 192.0, 0.0, 0.0, 0.0, 0.0, 0.0, 0.0, 0.0, 0.0, 0.0, 1.769163656028118E9, 0.0, 2026-01-23 18:20:56.028
70.0, 33883.41175120017, 10813.99748492211, 5451.501065671571, 21857.99442028933, 9584.673891624678, -11583.456287796056, 31774.47995835304, 30714.135553137727, -59083.37194721365, -30338.000397443822, -137065.88143895645, -55257.02151739854, -542.1415617634729, 2258.375556275315, -71961.57538432782, -187500.02235174447, 0.0, 0.0, 0.0, 192.0, 0.0, 0.0, 0.0, 0.0, 0.0, 0.0, 0.0, 0.0, 0.0, 1.769163656033976E9, 0.0, 2026-01-23 18:20:56.033
72.0, 33878.8966988202, 10799.111223114876, 5441.398077177772, 21875.965222831397, 9606.75741514652, -11556.231863049492, 31777.09511245431, 30699.137532608216, -59171.08019245627, -30381.42983692048, -137100.50429111772, -55281.13904966582, -550.6128729120342, 2180.5244303374807, -72048.92600165916, -187500.02235174447, 0.0, 0.0, 0.0, 192.0, 0.0, 0.0, 0.0, 0.0, 0.0, 0.0, 0.0, 0.0, 0.0, 1.769163656057008E9, 0.0, 2026-01-23 18:20:56.057
74.0, 33943.98497867405, 10860.53381687806, 5494.550525492493, 21886.358784003114, 9607.405615735724, -11564.122028842216, 31757.492632567006, 30682.753703922477, -58971.34500400365, -30265.871318086545, -137006.51520568316, -55214.70966514465, -526.9200237894087, 2331.1081327328843, -71891.56972069379, -187500.02235174447, 0.0, 0.0, 0.0, 192.0, 0.0, 0.0, 0.0, 0.0, 0.0, 0.0, 0.0, 0.0, 0.0, 1.769163656063068E9, 0.0, 2026-01-23 18:20:56.063
76.0, 33851.60521884027, 10781.36393801736, 5420.856824023345, 21853.725237098366, 9586.059699780906, -11577.62248249322, 31784.96292650258, 30722.785678241933, -59206.53005916239, -30408.475447711404, -137124.28654721816, -55297.56758184047, -556.6254921705117, 2155.669290503179, -72080.8666444858, -187500.02235174447, 0.0, 0.0, 0.0, 192.0, 0.0, 0.0, 0.0, 0.0, 0.0, 0.0, 0.0, 0.0, 0.0, 1.769163656068204E9, 0.0, 2026-01-23 18:20:56.068
78.0, 33930.84215293433, 10840.66311605729, 5477.652606684281, 21894.874798640587, 9620.011999608518, -11546.978240844994, 31763.1476239142, 30677.07636083083, -59027.20201339746, -30295.12975157854, -137030.87860713943, -55232.41224675325, -532.7314773477885, 2304.26368764206, -71926.59490425527, -187500.02235174447, 0.0, 0.0, 0.0, 192.0, 0.0, 0.0, 0.0, 0.0, 0.0, 0.0, 0.0, 0.0, 0.0, 1.769163656074028E9, 0.0, 2026-01-23 18:20:56.074
80.0, 33888.39619021371, 10817.752577990601, 5452.596301149882, 21860.453112179413, 9587.110231770306, -11582.271645339924, 31773.071798452354, 30713.04031765942, -59085.338900725714, -30339.430909088962, -137069.01068318018, -55259.279043588525, -542.9015210749533, 2272.993597149086, -71949.0360556884, -187500.02235174447, 0.0, 0.0, 0.0, 192.0, 0.0, 0.0, 0.0, 0.0, 0.0, 0.0, 0.0, 0.0, 0.0, 1.769163656079988E9, 0.0, 2026-01-23 18:20:56.079
82.0, 33883.27764073344, 10802.843964438911, 5442.381553933806, 21878.66978391049, 9609.059644825416, -11555.069572337816, 31775.172862431154, 30697.5952622408, -59171.46017211201, -30381.67570610949, -137103.14179696343, -55282.79307875551, -550.746983378766, 2191.901468265232, -72038.21951606507, -187500.02235174447, 0.0, 0.0, 0.0, 192.0, 0.0, 0.0, 0.0, 0.0, 0.0, 0.0, 0.0, 0.0, 0.0, 1.769163656086134E9, 0.0, 2026-01-23 18:20:56.086
84.0, 33946.600132775326, 10862.791343068046, 5494.662284214769, 21888.661013682013, 9609.707845414621, -11563.138552086182, 31756.33034185533, 30681.390247510702, -58973.20019879344, -30266.9442018204, -137009.86796735146, -55217.481281457105, -527.0988377450511, 2329.565862365468, -71892.77671489438, -187500.02235174447, 0.0, 0.0, 0.0, 192.0, 0.0, 0.0, 0.0, 0.0, 0.0, 0.0, 0.0, 0.0, 0.0, 1.769163656091098E9, 0.0, 2026-01-23 18:20:56.091
86.0, 33853.88509677471, 10783.241484551607, 5421.236803679086, 21856.072170266172, 9588.406632948712, -11576.460191781545, 31783.644173579716, 30721.757497996987, -59208.09468127426, -30409.63773842308, -137127.97458505328, -55300.04862547501, -557.0725270596179, 2153.9258544356653, -72078.05032468443, -187500.02235174447, 0.0, 0.0, 0.0, 192.0, 0.0, 0.0, 0.0, 0.0, 0.0, 0.0, 0.0, 0.0, 0.0, 1.769163656097023E9, 0.0, 2026-01-23 18:20:56.097
88.0, 33933.05497563541, 10842.00422072461, 5477.697310173191, 21897.288787041758, 9622.247174054048, -11545.681839666586, 31761.560650057872, 30675.914070119154, -59027.604344797655, -30294.99564111181, -137033.22554030723, -55233.6862961872, -532.3738494365036, 2267.785640690999, -71961.48597734999, -187500.02235174447, 0.0, 0.0, 0.0, 192.0, 0.0, 0.0, 0.0, 0.0, 0.0, 0.0, 0.0, 0.0, 0.0, 1.769163656120146E9, 0.0, 2026-01-23 18:20:56.120
90.0, 33888.7985216139, 10818.780758235545, 5452.417487194239, 21863.247080236328, 9589.70303412712, -11580.930540672605, 31771.484824596027, 30711.073364147353, -59086.188267015015, -30339.833240489155, -137071.51407855918, -55260.73190697812, -542.7003553748555, 2227.396038460259, -72000.06508827987, -187500.02235174447, 0.0, 0.0, 0.0, 192.0, 0.0, 0.0, 0.0, 0.0, 0.0, 0.0, 0.0, 0.0, 0.0, 1.769163656126112E9, 0.0, 2026-01-23 18:20:56.126
92.0, 33881.69066687711, 10802.218115594163, 5441.576891133415, 21881.50845545631, 9611.563040204412, -11553.393191503668, 31773.831757763837, 30695.963584895562, -59170.96843373399, -30381.340429942662, -137104.9075847754, -55283.821259000455, -550.6352246564895, 2166.219313886084, -72076.10572291681, -187500.02235174447, 0.0, 0.0, 0.0, 192.0, 0.0, 0.0, 0.0, 0.0, 0.0, 0.0, 0.0, 0.0, 0.0, 1.769163656131187E9, 0.0, 2026-01-23 18:20:56.131
94.0, 33942.733280984554, 10860.556168622514, 5493.231772569629, 21891.365574761105, 9612.010075093518, -11561.417467763124, 31755.212754632565, 30679.803273654376, -58973.93780636047, -30267.301829731685, -137011.9466795858, -55218.97884833561, -527.2776517006936, 2327.040115242018, -71905.62896795619, -187500.02235174447, 0.0, 0.0, 0.0, 192.0, 0.0, 0.0, 0.0, 0.0, 0.0, 0.0, 0.0, 0.0, 0.0, 1.76916365613713E9, 0.0, 2026-01-23 18:20:56.137
96.0, 33847.76071879396, 10779.687557183213, 5418.68870481118, 21859.156711001007, 9591.357063216814, -11574.3814795472, 31782.23601367903, 30720.03641367393, -59208.92169581911, -30410.196532034464, -137129.94153856536, -55301.56854409797, -557.2066375263497, 2181.3961483712374, -72058.80547270841, -187500.02235174447, 0.0, 0.0, 0.0, 192.0, 0.0, 0.0, 0.0, 0.0, 0.0, 0.0, 0.0, 0.0, 0.0, 1.769163656143187E9, 0.0, 2026-01-23 18:20:56.143
98.0, 33925.88006566525, 10838.182072422753, 5476.110336316864, 21900.686252198968, 9625.28701129997, -11543.938403599073, 31760.398359346196, 30674.282392773915, -59028.00667619785, -30295.12975157854, -137035.1924938193, -55235.49678748808, -532.5750151366013, 2311.5727080789457, -71923.66682573162, -187500.02235174447, 0.0, 0.0, 0.0, 192.0, 0.0, 0.0, 0.0, 0.0, 0.0, 0.0, 0.0, 0.0, 0.0, 1.769163656149105E9, 0.0, 2026-01-23 18:20:56.149
100.0, 33882.47297793305, 10815.025665167053, 5451.188141249197, 21866.778655860264, 9592.765223117498, -11579.209456349547, 31769.450815850596, 30709.419335057657, -59087.305854237784, -30340.548496311727, -137073.9057152159, -55263.03413665702, -543.0579832861404, 2255.760402174044, -71971.00782048795, -187500.02235174447, 0.0, 0.0, 0.0, 192.0, 0.0, 0.0, 0.0, 0.0, 0.0, 0.0, 0.0, 0.0, 0.0, 1.769163656154112E9, 0.0, 2026-01-23 18:20:56.154
102.0, 33874.582812140325, 10797.300731813995, 5438.872330054322, 21884.8165136357, 9614.982857106073, -11551.515644969422, 31772.24478390751, 30694.443666272604, -59171.28135815637, -30381.7204095984, -137107.14275922094, -55285.8999712348, -551.0822595455957, 2179.7197675370894, -72052.92696391666, -187500.02235174447, 0.0, 0.0, 0.0, 192.0, 0.0, 0.0, 0.0, 0.0, 0.0, 0.0, 0.0, 0.0, 0.0, 1.7691636561772E9, 0.0, 2026-01-23 18:20:56.177
104.0, 33936.00540590351, 10856.979889509665, 5491.667150457758, 21894.807743407222, 9615.385188506269, -11559.964604373528, 31752.91052495367, 30678.149244564684, -58975.41302149452, -30269.0452657992, -137015.6347174209, -55221.951630348165, -528.037611012174, 2329.3870484098256, -71888.4181247256, -187500.02235174447, 0.0, 0.0, 0.0, 192.0, 0.0, 0.0, 0.0, 0.0, 0.0, 0.0, 0.0, 0.0, 0.0, 1.769163656183128E9, 0.0, 2026-01-23 18:20:56.183
106.0, 33840.25053265697, 10775.79835364799, 5417.0346757214875, 21862.397713947026, 9594.32984522937, -11572.973319646517, 31780.604336333792, 30718.40473632869, -59210.486317930976, -30411.470581468417, -137133.18254151137, -55304.25075343261, -557.8548381155537, 2163.894732462732, -72065.82392046737, -187500.02235174447, 0.0, 0.0, 0.0, 192.0, 0.0, 0.0, 0.0, 0.0, 0.0, 0.0, 0.0, 0.0, 0.0, 1.769163656189149E9, 0.0, 2026-01-23 18:20:56.189
108.0, 33919.06278360639, 10834.62814505436, 5474.210438038163, 21903.837848167164, 9628.19273807916, -11542.798464631853, 31758.364350600765, 30672.7401224065, -59028.40900759805, -30296.269690545763, -137038.2993862986, -55237.77666542252, -533.2679192147159, 2291.545545046991, -71935.69206424858, -187500.02235174447, 0.0, 0.0, 0.0, 192.0, 0.0, 0.0, 0.0, 0.0, 0.0, 0.0, 0.0, 0.0, 0.0, 1.769163656194088E9, 0.0, 2026-01-23 18:20:56.194
110.0, 33875.923916807646, 10811.203516865196, 5448.774152848024, 21869.885548339553, 9595.648598152233, -11577.756592959953, 31768.065007694368, 30708.391154812714, -59088.557551927275, -30341.599028301127, -137077.5043460732, -55265.224607613636, -543.8626460865314, 2246.0373933359856, -71977.78039905791, -187500.02235174447, 0.0, 0.0, 0.0, 192.0, 0.0, 0.0, 0.0, 0.0, 0.0, 0.0, 0.0, 0.0, 0.0, 1.769163656200177E9, 0.0, 2026-01-23 18:20:56.200
112.0, 33868.503137648484, 10794.171487590253, 5437.285356197996, 21887.7669439038, 9617.866232140808, -11550.33100251329, 31770.926030984647, 30693.415486027658, -59171.92955874557, -30382.368610187605, -137109.98143076675, -55287.77751776904, -551.4398874568806, 2194.9189537666985, -72036.85605965329, -187500.02235174447, 0.0, 0.0, 0.0, 192.0, 0.0, 0.0, 0.0, 0.0, 0.0, 0.0, 0.0, 0.0, 0.0, 1.76916365620622E9, 0.0, 2026-01-23 18:20:56.206
114.0, 33930.23865583404, 10853.738886563646, 5489.387272523317, 21897.24408355285, 9617.709769929621, -11558.511740983933, 31751.90469645318, 30678.05983758686, -58975.3683180056, -30268.911155332466, -137017.62402267742, -55223.02451408202, -527.9035005454422, 2353.7057463772, -71864.92644130308, -187500.02235174447, 0.0, 0.0, 0.0, 192.0, 0.0, 0.0, 0.0, 0.0, 0.0, 0.0, 0.0, 0.0, 0.0, 1.76916365621118E9, 0.0, 2026-01-23 18:20:56.211
116.0, 33837.389509366694, 10773.518475713548, 5415.805329776446, 21865.169330259483, 9596.788537119453, -11571.609863234742, 31779.263231666475, 30717.488314806025, -59210.73218711999, -30411.358822746137, -137135.48477119027, -55305.61420984438, -557.9665968378303, 2165.9734446970756, -72061.64414425423, -187500.02235174447, 0.0, 0.0, 0.0, 192.0, 0.0, 0.0, 0.0, 0.0, 0.0, 0.0, 0.0, 0.0, 0.0, 1.769163656217166E9, 0.0, 2026-01-23 18:20:56.217
118.0, 33917.05112660541, 10833.28704038704, 5473.830458382423, 21906.453002268434, 9630.785540435976, -11541.345601242258, 31756.79972848889, 30671.399017739182, -59028.49841457587, -30296.18028356794, -137040.53456074413, -55239.38599102331, -533.4690849148137, 2298.9663242061524, -71925.92435192161, -187500.02235174447, 0.0, 0.0, 0.0, 192.0, 0.0, 0.0, 0.0, 0.0, 0.0, 0.0, 0.0, 0.0, 0.0, 1.769163656240194E9, 0.0, 2026-01-23 18:20:56.240
120.0, 33872.52645165044, 10809.147156375308, 5447.74597260308, 21872.18777801845, 9597.749662131031, -11576.661357481642, 31767.05917919388, 30707.340622823314, -59090.30098799479, -30342.649560290523, -137080.4547763413, -55267.50448554808, -544.1085152755398, 2263.896437155776, -71959.83194826031, -187500.02235174447, 0.0, 0.0, 0.0, 192.0, 0.0, 0.0, 0.0, 0.0, 0.0, 0.0, 0.0, 0.0, 0.0, 1.769163656246175E9, 0.0, 2026-01-23 18:20:56.246
122.0, 33868.45843415957, 10794.171487590253, 5437.754742831557, 21890.225635793882, 9619.877889141786, -11548.90049086815, 31769.0484844504, 30691.917919149153, -59171.95191049003, -30382.43566542097, -137112.2166052123, -55289.23038115864, -551.551646179157, 2208.732331840078, -72027.42362349316, -187500.02235174447, 0.0, 0.0, 0.0, 192.0, 0.0, 0.0, 0.0, 0.0, 0.0, 0.0, 0.0, 0.0, 0.0, 1.769163656251286E9, 0.0, 2026-01-23 18:20:56.251
124.0, 33931.15507735671, 10853.805941797013, 5489.7001969456915, 21899.47925799838, 9619.833185652875, -11557.438857250077, 31750.161260385667, 30676.20464279707, -58976.351794761635, -30269.80522511068, -137020.86502562344, -55225.32674376092, -528.9540325348416, 2372.592970441934, -71849.79431030682, -187500.02235174447, 0.0, 0.0, 0.0, 192.0, 0.0, 0.0, 0.0, 0.0, 0.0, 0.0, 0.0, 0.0, 0.0, 1.769163656257302E9, 0.0, 2026-01-23 18:20:56.257
126.0, 33835.89194248819, 10773.049089079988, 5415.939440243178, 21867.113932027096, 9598.889601098252, -11570.604034734253, 31777.676257810148, 30716.482486305536, -59211.112166775725, -30411.8282093797, -137138.14462878046, -55307.804680801, -558.2795212602045, 2179.2950843924386, -72050.73649296004, -187500.02235174447, 0.0, 0.0, 0.0, 192.0, 0.0, 0.0, 0.0, 0.0, 0.0, 0.0, 0.0, 0.0, 0.0, 1.76916365626332E9, 0.0, 2026-01-23 18:20:56.263
128.0, 33918.43693476164, 10834.561089820992, 5474.590417693904, 21908.576417991688, 9632.640735225767, -11540.406827975134, 31755.302161610387, 30670.527299705424, -59027.760807008846, -30296.0014696123, -137042.59092123402, -55240.45887475716, -533.3349744480818, 2322.525062862046, -71902.3209097768, -187500.02235174447, 0.0, 0.0, 0.0, 192.0, 0.0, 0.0, 0.0, 0.0, 0.0, 0.0, 0.0, 0.0, 0.0, 1.769163656269277E9, 0.0, 2026-01-23 18:20:56.269
130.0, 33873.91225980667, 10809.437729053227, 5447.7906760919905, 21873.484179196857, 9599.493098198545, -11575.744935958975, 31765.67337103765, 30706.82653270084, -59090.70331939499, -30343.25305739082, -137083.1146339315, -55269.337328593414, -544.6449571424672, 2280.3473210748816, -71937.83783171629, -187500.02235174447, 0.0, 0.0, 0.0, 192.0, 0.0, 0.0, 0.0, 0.0, 0.0, 0.0, 0.0, 0.0, 0.0, 1.7691636562742E9, 0.0, 2026-01-23 18:20:56.274
132.0, 33869.15133823769, 10794.75263294609, 5438.358239931851, 21892.05847883922, 9622.068360098405, -11548.252290278948, 31767.841490249815, 30691.090904604305, -59171.6166343232, -30382.279203209786, -137114.45177965783, -55290.92911373724, -551.8645706015313, 2212.509776653025, -72016.91830359916, -187500.02235174447, 0.0, 0.0, 0.0, 192.0, 0.0, 0.0, 0.0, 0.0, 0.0, 0.0, 0.0, 0.0, 0.0, 1.769163656297305E9, 0.0, 2026-01-23 18:20:56.297
134.0, 33932.49618202403, 10854.789418553046, 5490.929542890733, 21900.95447313243, 9621.509566487022, -11557.215339805525, 31748.887210951714, 30675.578793952325, -58976.172980806, -30270.02874255523, -137023.100200069, -55226.80195889497, -528.7528668347438, 2344.1391997503283, -71876.10231353072, -187500.02235174447, 0.0, 0.0, 0.0, 192.0, 0.0, 0.0, 0.0, 0.0, 0.0, 0.0, 0.0, 0.0, 0.0, 1.769163656303296E9, 0.0, 2026-01-23 18:20:56.303
136.0, 33837.970654722536, 10773.674937924736, 5416.162957687731, 21868.700905883423, 9600.476574954579, -11570.179351589602, 31776.91629849867, 30716.057803160886, -59211.93918132057, -30412.632872180093, -137140.9162450929, -55309.52576512406, -558.391279982481, 2149.0531741444083, -72083.92883347617, -187500.02235174447, 0.0, 0.0, 0.0, 192.0, 0.0, 0.0, 0.0, 0.0, 0.0, 0.0, 0.0, 0.0, 0.0, 1.769163656309257E9, 0.0, 2026-01-23 18:20:56.309
138.0, 33918.88396965074, 10834.851662498912, 5474.612769438359, 21909.783412192275, 9634.071246870906, -11540.295069252858, 31754.318684854352, 30670.370837494236, -59027.71610351993, -30296.359097523582, -137045.22842707974, -55242.06820035794, -533.6702506149114, 2286.270533355538, -71947.985523699, -187500.02235174447, 0.0, 0.0, 0.0, 192.0, 0.0, 0.0, 0.0, 0.0, 0.0, 0.0, 0.0, 0.0, 0.0, 1.769163656314206E9, 0.0, 2026-01-23 18:20:56.314
140.0, 33876.974448797046, 10811.739958732123, 5449.534112159505, 21875.272318753283, 9600.94596158814, -11575.789639447885, 31764.287562881418, 30705.88775943372, -59091.50798219538, -30344.14712716903, -137086.24387815522, -55270.92430244974, -544.6673088869225, 2239.0412973214743, -71994.70066961058, -187500.02235174447, 0.0, 0.0, 0.0, 192.0, 0.0, 0.0, 0.0, 0.0, 0.0, 0.0, 0.0, 0.0, 0.0, 1.76916365632033E9, 0.0, 2026-01-23 18:20:56.320
142.0, 33872.30293420589, 10796.250199824597, 5439.2746614545185, 21893.399583506536, 9623.342409532359, -11548.073476323305, 31766.723903027047, 30690.867387159753, -59171.08019245627, -30382.815645076713, -137116.82106457007, -55292.069052704464, -551.9316258348973, 2167.0686801753855, -72081.73836251955, -187500.02235174447, 0.0, 0.0, 0.0, 192.0, 0.0, 0.0, 0.0, 0.0, 0.0, 0.0, 0.0, 0.0, 0.0, 1.76916365632627E9, 0.0, 2026-01-23 18:20:56.326
144.0, 33934.37372855827, 10855.303508675517, 5490.415452768261, 21901.870894655098, 9622.582450220878, -11557.036525849882, 31748.440176062606, 30676.15993930816, -58976.30709127273, -30270.498129188793, -137025.38007800342, -55228.29952577347, -528.4622941568249, 2315.6183738253562, -71924.44913678756, -187500.02235174447, 0.0, 0.0, 0.0, 192.0, 0.0, 0.0, 0.0, 0.0, 0.0, 0.0, 0.0, 0.0, 0.0, 1.769163656332204E9, 0.0, 2026-01-23 18:20:56.332
146.0, 33840.92108499063, 10775.440725736706, 5416.900565254756, 21869.974955317375, 9601.437699966156, -11569.86642716723, 31776.201042676097, 30715.990747927517, -59211.8274225983, -30413.10225881365, -137143.10671604951, -55310.82216630247, -558.5030387047576, 2156.8539329593104, -72090.74611553505, -187500.02235174447, 0.0, 0.0, 0.0, 192.0, 0.0, 0.0, 0.0, 0.0, 0.0, 0.0, 0.0, 0.0, 0.0, 1.769163656337326E9, 0.0, 2026-01-23 18:20:56.337
148.0, 33922.46024876359, 10835.790435766034, 5474.925693860733, 21910.275150570294, 9634.361819548825, -11540.451531464045, 31754.117519154253, 30670.6390584277, -59027.40317909756, -30297.119056835065, -137047.37419454745, -55243.69987770318, -533.9608232928305, 2285.242353110594, -71957.75323602596, -187500.02235174447, 0.0, 0.0, 0.0, 192.0, 0.0, 0.0, 0.0, 0.0, 0.0, 0.0, 0.0, 0.0, 0.0, 1.769163656360303E9, 0.0, 2026-01-23 18:20:56.360
150.0, 33879.43314068713, 10813.036359910531, 5449.9364435597, 21875.920519342486, 9601.392996477247, -11575.879046425707, 31763.974638459047, 30706.357146067283, -59091.73149963993, -30344.705920780412, -137088.54610783412, -55272.39951758379, -544.6673088869225, 2243.1540183012507, -71999.1933702461, -187500.02235174447, 0.0, 0.0, 0.0, 192.0, 0.0, 0.0, 0.0, 0.0, 0.0, 0.0, 0.0, 0.0, 0.0, 1.769163656366312E9, 0.0, 2026-01-23 18:20:56.366
152.0, 33874.292239462404, 10797.211324836175, 5439.40877192125, 21893.868970140098, 9623.722389188099, -11548.229938534492, 31767.081530938332, 30691.247366815493, -59170.364936633705, -30382.43566542097, -137118.34098319305, -55292.89606724931, -551.4398874568806, 2170.2649796324945, -72086.45458059962, -187500.02235174447, 0.0, 0.0, 0.0, 192.0, 0.0, 0.0, 0.0, 0.0, 0.0, 0.0, 0.0, 0.0, 0.0, 1.769163656372202E9, 0.0, 2026-01-23 18:20:56.372
154.0, 33936.92182742618, 10856.398744153828, 5491.063653357465, 21902.42968826648, 9622.783615920975, -11557.304746783346, 31748.551934784882, 30676.22699454153, -58975.70359417243, -30270.85575710008, -137027.41408674885, -55229.014781596044, -528.6634598569226, 2319.6416878273117, -71924.60559899874, -187500.02235174447, 0.0, 0.0, 0.0, 192.0, 0.0, 0.0, 0.0, 0.0, 0.0, 0.0, 0.0, 0.0, 0.0, 1.769163656377583E9, 0.0, 2026-01-23 18:20:56.377
156.0, 33843.9385704921, 10776.580664703926, 5417.54876584396, 21870.33258322866, 9601.750624388531, -11570.089944611782, 31776.379856631742, 30716.30367234989, -59210.95570456454, -30412.766982646823, -137144.6713381614, -55311.224497702664, -558.391279982481, 2161.5030958060142, -72087.84038875585, -187500.02235174447, 0.0, 0.0, 0.0, 192.0, 0.0, 0.0, 0.0, 0.0, 0.0, 0.0, 0.0, 0.0, 0.0, 1.769163656383282E9, 0.0, 2026-01-23 18:20:56.383
158.0, 33925.075402864866, 10837.645630555824, 5476.13268806132, 21911.213923837415, 9634.652392226744, -11540.719752397508, 31754.430443576628, 30670.92963110562, -59025.30211511876, -30295.733248678836, -137048.20120909228, -55243.25284281407, -533.1561604924393, 2288.639818267801, -71954.75810226896, -187500.02235174447, 0.0, 0.0, 0.0, 192.0, 0.0, 0.0, 0.0, 0.0, 0.0, 0.0, 0.0, 0.0, 0.0, 1.769163656389285E9, 0.0, 2026-01-23 18:20:56.389
160.0, 33881.80242559939, 10813.818670966468, 5449.9364435597, 21876.166388531496, 9601.392996477247, -11576.19197084808, 31764.846356492802, 30707.430029801137, -59090.658615906075, -30344.415348102495, -137089.79780552362, -55272.71244200617, -544.3320327200929, 2260.633082465301, -71973.6900298226, -187500.02235174447, 0.0, 0.0, 0.0, 192.0, 0.0, 0.0, 0.0, 0.0, 0.0, 0.0, 0.0, 0.0, 0.0, 1.769163656394335E9, 0.0, 2026-01-23 18:20:56.394
162.0, 33878.159091253176, 10799.155926603786, 5440.325193443918, 21894.360708518114, 9623.811796165919, -11548.676973423599, 31767.305048382885, 30691.8955674047, -59168.62150056619, -30381.9215752985, -137119.30210820463, -55293.20899167169, -551.39518396797, 2180.6585408042124, -72059.90070818672, -187500.02235174447, 0.0, 0.0, 0.0, 192.0, 0.0, 0.0, 0.0, 0.0, 0.0, 0.0, 0.0, 0.0, 0.0, 1.769163656417263E9, 0.0, 2026-01-23 18:20:56.417
164.0, 33936.318330325885, 10855.370563908884, 5489.476679501138, 21901.982653377374, 9622.33658103187, -11558.399982261657, 31750.161260385667, 30678.50687247597, -58975.658890683524, -30270.90046058899, -137028.9563571163, -55229.95355486317, -528.6634598569226, 2322.3462489064036, -71903.75142142194, -187500.02235174447, 0.0, 0.0, 0.0, 192.0, 0.0, 0.0, 0.0, 0.0, 0.0, 0.0, 0.0, 0.0, 0.0, 1.769163656423331E9, 0.0, 2026-01-23 18:20:56.423
166.0, 33850.21941068404, 10782.034490351021, 5421.639135079281, 21871.42781870697, 9602.085900555361, -11570.33581380079, 31775.999876976002, 30715.9013409497, -59210.083986530786, -30412.72227915791, -137146.37007074, -55311.783291314045, -558.3689282380258, 2170.1979243991286, -72067.96968793508, -187500.02235174447, 0.0, 0.0, 0.0, 192.0, 0.0, 0.0, 0.0, 0.0, 0.0, 0.0, 0.0, 0.0, 0.0, 1.769163656429252E9, 0.0, 2026-01-23 18:20:56.429
168.0, 33923.19785633062, 10836.684505544246, 5474.456307227172, 21910.409261037024, 9634.272412571003, -11541.502063453445, 31755.9950656885, 30672.9412881066, -59023.06694067323, -30294.861530645077, -137049.29644457062, -55243.92339514773, -533.0444017701628, 2300.687408529211, -71938.15075613865, -187500.02235174447, 0.0, 0.0, 0.0, 192.0, 0.0, 0.0, 0.0, 0.0, 0.0, 0.0, 0.0, 0.0, 0.0, 1.769163656434339E9, 0.0, 2026-01-23 18:20:56.434
170.0, 33880.61778314326, 10813.170470377263, 5449.332946459406, 21875.540539686746, 9600.94596158814, -11577.041337137383, 31766.567440815863, 30709.352279824292, -59091.84325836221, -30345.085900436152, -137091.74240729123, -55273.49475306211, -544.2873292311823, 2235.956756586642, -71998.56752140135, -187500.02235174447, 0.0, 0.0, 0.0, 192.0, 0.0, 0.0, 0.0, 0.0, 0.0, 0.0, 0.0, 0.0, 0.0, 1.769163656440319E9, 0.0, 2026-01-23 18:20:56.440
172.0, 33882.204756999585, 10801.972246405156, 5442.64977486727, 21894.606577707124, 9623.297706043448, -11549.503987968445, 31768.154414672186, 30692.387305782715, -59165.827532509276, -30380.468711908903, -137120.06206751612, -55292.82901201594, -550.7916868676766, 2174.0647761898967, -72072.37298159278, -187500.02235174447, 0.0, 0.0, 0.0, 192.0, 0.0, 0.0, 0.0, 0.0, 0.0, 0.0, 0.0, 0.0, 0.0, 1.769163656446293E9, 0.0, 2026-01-23 18:20:56.446
174.0, 33932.00444364601, 10850.76610455109, 5485.632179454825, 21900.03805160976, 9620.771958919997, -11559.405810762146, 31753.268152864952, 30682.105503333274, -58975.83770463917, -30270.922812333443, -137030.856255395, -55229.95355486317, -528.3058319456377, 2334.2820804455378, -71896.80002889634, -187500.02235174447, 0.0, 0.0, 0.0, 192.0, 0.0, 0.0, 0.0, 0.0, 0.0, 0.0, 0.0, 0.0, 0.0, 1.769163656452378E9, 0.0, 2026-01-23 18:20:56.452
176.0, 33850.17470719513, 10780.17929556123, 5420.365085645329, 21870.265527995292, 9601.169479032693, -11571.520456256922, 31778.302106654897, 30718.449439817603, -59209.86046908623, -30412.49876171336, -137147.6664719184, -55311.358608169394, -558.0336520711961, 2184.86066876181, -72049.753016204, -187500.02235174447, 0.0, 0.0, 0.0, 192.0, 0.0, 0.0, 0.0, 0.0, 0.0, 0.0, 0.0, 0.0, 0.0, 1.769163656457342E9, 0.0, 2026-01-23 18:20:56.457
178.0, 33923.08609760834, 10835.276345643562, 5473.405775237772, 21908.86699066961, 9633.043066625962, -11542.820816376307, 31758.319647111854, 30675.77995965242, -59022.217574383925, -30294.28038528924, -137049.85523818198, -55243.23049106962, -532.5303116476907, 2294.138347403806, -71940.34122709528, -187500.02235174447, 0.0, 0.0, 0.0, 192.0, 0.0, 0.0, 0.0, 0.0, 0.0, 0.0, 0.0, 0.0, 0.0, 1.769163656480373E9, 0.0, 2026-01-23 18:20:56.480
180.0, 33881.10952152128, 10812.790490721523, 5449.1988359926745, 21874.19943501943, 9599.47074645409, -11578.248331337969, 31768.512042583472, 30711.54275078091, -59092.200886273495, -30345.018845202787, -137092.74823579172, -55273.27123561755, -544.1308670199951, 2243.4669427236254, -71989.78328583042, -187500.02235174447, 0.0, 0.0, 0.0, 192.0, 0.0, 0.0, 0.0, 0.0, 0.0, 0.0, 0.0, 0.0, 0.0, 1.769163656486436E9, 0.0, 2026-01-23 18:20:56.486
182.0, 33881.444797688106, 10801.70402547169, 5442.64977486727, 21892.99725210634, 9621.66602869821, -11550.420409491111, 31770.009609461977, 30694.667183717156, -59163.97233771948, -30379.19466247495, -137119.79384658264, -55291.97964572664, -550.1881897673834, 2189.95686649762, -72051.47410052706, -187500.02235174447, 0.0, 0.0, 0.0, 192.0, 0.0, 0.0, 0.0, 0.0, 0.0, 0.0, 0.0, 0.0, 0.0, 1.769163656492374E9, 0.0, 2026-01-23 18:20:56.492
184.0, 33933.12203086878, 10851.436656884749, 5485.855696899378, 21898.56283647571, 9619.184985063672, -11560.702211940554, 31755.257458121476, 30683.98304986752, -58974.45189648293, -30269.760521621767, -137030.81155190605, -55229.17124380723, -527.7023348453445, 2356.075031289462, -71869.3073832163, -187500.02235174447, 0.0, 0.0, 0.0, 192.0, 0.0, 0.0, 0.0, 0.0, 0.0, 0.0, 0.0, 0.0, 0.0, 1.769163656497331E9, 0.0, 2026-01-23 18:20:56.497
186.0, 33851.40405314017, 10781.073365339442, 5420.476844367605, 21869.03618205025, 9599.80602262092, -11572.794505690874, 31780.090246211323, 30720.058765418384, -59208.13938476317, -30410.934139601486, -137147.0182713292, -55310.3527796689, -556.938416592886, 2180.3009128929275, -72050.13299585975, -187500.02235174447, 0.0, 0.0, 0.0, 192.0, 0.0, 0.0, 0.0, 0.0, 0.0, 0.0, 0.0, 0.0, 0.0, 1.769163656503359E9, 0.0, 2026-01-23 18:20:56.503
188.0, 33923.890760408736, 10834.739903776635, 5472.690519415202, 21907.01179587982, 9631.43374102518, -11543.916051854618, 31760.934801213123, 30677.970430609043, -59020.764710994335, -30292.89457713301, -137049.94464515982, -55242.291717802495, -531.9268145473975, 2301.7155887741555, -71926.61725599972, -187500.02235174447, 0.0, 0.0, 0.0, 192.0, 0.0, 0.0, 0.0, 0.0, 0.0, 0.0, 0.0, 0.0, 0.0, 1.769163656509355E9, 0.0, 2026-01-23 18:20:56.509
190.0, 33881.06481803236, 10812.812842465979, 5448.818856336935, 21873.014792563295, 9597.839069108853, -11579.410622049645, 31770.970734473558, 30713.777925226444, -59091.17270602855, -30344.05772019121, -137093.39643638092, -55272.37716583934, -543.4379629418806, 2268.92557965822, -71954.78045401341, -187500.02235174447, 0.0, 0.0, 0.0, 192.0, 0.0, 0.0, 0.0, 0.0, 0.0, 0.0, 0.0, 0.0, 0.0, 1.7691636565154E9, 0.0, 2026-01-23 18:20:56.515
192.0, 33881.310687221376, 10801.391101049318, 5442.2697952115295, 21892.125534072584, 9620.503737986533, -11551.85092113625, 31772.647115307704, 30697.148227351696, -59162.5641778188, -30378.322944441195, -137120.28558496066, -55290.77265152606, -549.6964513893666, 2205.670142849701, -72022.77446064645, -187500.02235174447, 0.0, 0.0, 0.0, 192.0, 0.0, 0.0, 0.0, 0.0, 0.0, 0.0, 0.0, 0.0, 0.0, 1.769163656537384E9, 0.0, 2026-01-23 18:20:56.537
194.0, 33931.08802212334, 10850.564938850992, 5484.55929572097, 21896.75234517483, 9617.463900740613, -11562.266834052425, 31757.962019200568, 30687.201701069083, -58974.63071043858, -30269.738169877313, -137031.6385664509, -55228.679505429216, -527.6352796119785, 2328.112998975873, -71887.83697936976, -187500.02235174447, 0.0, 0.0, 0.0, 192.0, 0.0, 0.0, 0.0, 0.0, 0.0, 0.0, 0.0, 0.0, 0.0, 1.769163656543576E9, 0.0, 2026-01-23 18:20:56.543
196.0, 33851.31464616235, 10780.782792661525, 5420.610954834337, 21867.225690749372, 9598.174345275682, -11574.403831291656, 31782.68304856814, 30722.919788708663, -59207.401777196144, -30410.30829075674, -137147.80058238516, -55309.74928256861, -556.6254921705117, 2151.9141974346876, -72081.62660379727, -187500.02235174447, 0.0, 0.0, 0.0, 192.0, 0.0, 0.0, 0.0, 0.0, 0.0, 0.0, 0.0, 0.0, 0.0, 1.769163656549347E9, 0.0, 2026-01-23 18:20:56.549
198.0, 33923.935463897644, 10835.164586921286, 5473.22696128213, 21905.693042956955, 9629.645601468756, -11545.704191411041, 31763.125272169746, 30680.585584710312, -59018.88716446009, -30291.173492809954, -137049.43055503734, -55240.95061313517, -531.3680209360148, 2291.2996758579825, -71939.24599161698, -187500.02235174447, 0.0, 0.0, 0.0, 192.0, 0.0, 0.0, 0.0, 0.0, 0.0, 0.0, 0.0, 0.0, 0.0, 1.769163656555442E9, 0.0, 2026-01-23 18:20:56.555
200.0, 33881.40009419919, 10812.343455832417, 5447.9694900476325, 21871.09254254014, 9596.050929552428, -11581.265816839436, 31773.80940601938, 30716.594245027813, -59091.150354284095, -30343.588333557647, -137094.08934045903, -55272.13129665033, -543.2591489862382, 2226.993707060064, -72002.7920011034, -187500.02235174447, 0.0, 0.0, 0.0, 192.0, 0.0, 0.0, 0.0, 0.0, 0.0, 0.0, 0.0, 0.0, 0.0, 1.769163656560338E9, 0.0, 2026-01-23 18:20:56.560
202.0, 33881.444797688106, 10801.011121393576, 5441.755705089057, 21889.6668421825, 9618.536784474467, -11553.840226392775, 31775.552842086894, 30699.78573319742, -59161.67010804059, -30376.82537756269, -137120.46439891632, -55289.99034047012, -549.4505822003582, 2166.867514475288, -72075.36811534979, -187500.02235174447, 0.0, 0.0, 0.0, 192.0, 0.0, 0.0, 0.0, 0.0, 0.0, 0.0, 0.0, 0.0, 0.0, 1.76916365656642E9, 0.0, 2026-01-23 18:20:56.566
204.0, 33930.77509770097, 10849.939090006244, 5483.978150365133, 21894.316005029203, 9615.049912339438, -11564.680822453598, 31760.890097724212, 30689.77215168144, -58974.02721333828, -30268.777044865736, -137032.2420635512, -55227.763083906546, -526.8082650671322, 2289.1092049013623, -71943.35871259675, -187500.02235174447, 0.0, 0.0, 0.0, 192.0, 0.0, 0.0, 0.0, 0.0, 0.0, 0.0, 0.0, 0.0, 0.0, 1.769163656572423E9, 0.0, 2026-01-23 18:20:56.572
206.0, 33849.86178277276, 10779.933426372221, 5418.9122222557335, 21864.990516303842, 9595.670949896688, -11576.504895270455, 31786.371086403262, 30725.825515487853, -59208.09468127426, -30410.174180290007, -137148.7170039078, -55309.548116868515, -556.4913817037799, 2137.6984879611123, -72101.16202845122, -187500.02235174447, 0.0, 0.0, 0.0, 192.0, 0.0, 0.0, 0.0, 0.0, 0.0, 0.0, 0.0, 0.0, 0.0, 1.769163656577381E9, 0.0, 2026-01-23 18:20:56.577
208.0, 33923.64489121972, 10835.008124710099, 5472.399946737283, 21903.748441189342, 9627.388075278768, -11547.782903645386, 31766.366275115764, 30683.424256256138, -59019.49066156038, -30291.106437576585, -137050.48108702674, -55240.6376887128, -531.0327447691852, 2289.0645014124516, -71945.19155564209, -187500.02235174447, 0.0, 0.0, 0.0, 192.0, 0.0, 0.0, 0.0, 0.0, 0.0, 0.0, 0.0, 0.0, 0.0, 1.76916365660053E9, 0.0, 2026-01-23 18:20:56.600
210.0, 33881.48950117701, 10812.43286281024, 5447.36599294734, 21868.767961116788, 9593.793403362442, -11583.38923256269, 31776.67042930966, 30719.388213084727, -59092.60321767369, -30343.878906235568, -137094.8045962816, -55271.88542746132, -542.7674106082214, 2256.2297888076055, -71974.96407925655, -187500.02235174447, 0.0, 0.0, 0.0, 192.0, 0.0, 0.0, 0.0, 0.0, 0.0, 0.0, 0.0, 0.0, 0.0, 1.769163656606454E9, 0.0, 2026-01-23 18:20:56.606
212.0, 33882.98706805552, 10802.195763849708, 5441.8004085779685, 21887.85635088162, 9616.413368751213, -11555.717772927019, 31778.257403165986, 30702.155018109683, -59161.80421850732, -30376.33363918467, -137120.24088147175, -55289.476250347645, -548.712974633333, 2224.2667942365165, -72011.97856807454, -187500.02235174447, 0.0, 0.0, 0.0, 192.0, 0.0, 0.0, 0.0, 0.0, 0.0, 0.0, 0.0, 0.0, 0.0, 1.769163656612482E9, 0.0, 2026-01-23 18:20:56.612
214.0, 33932.1609058572, 10850.877863273367, 5483.709929431669, 21892.4161067505, 9612.680627427177, -11566.603072476753, 31764.131100670234, 30692.744933694, -58974.67541392749, -30268.37471346554, -137032.37617401793, -55226.95842110615, -526.2718232002048, 2333.477417645147, -71892.79906663884, -187500.02235174447, 0.0, 0.0, 0.0, 192.0, 0.0, 0.0, 0.0, 0.0, 0.0, 0.0, 0.0, 0.0, 0.0, 1.769163656617467E9, 0.0, 2026-01-23 18:20:56.617
216.0, 33851.00172173998, 10781.27453103954, 5419.158091444742, 21863.336487214146, 9593.815755106898, -11578.181276104604, 31788.516853870973, 30727.814820744377, -59208.47466093, -30409.30246225625, -137148.69465216337, -55308.363474412385, -555.8878846034867, 2167.9403982091426, -72073.04353392644, -187500.02235174447, 0.0, 0.0, 0.0, 192.0, 0.0, 0.0, 0.0, 0.0, 0.0, 0.0, 0.0, 0.0, 0.0, 1.769163656623453E9, 0.0, 2026-01-23 18:20:56.623
218.0, 33925.72360345407, 10836.95272647771, 5472.578760692926, 21901.937949888463, 9625.309363044425, -11550.062781579827, 31768.71320828357, 30685.234747557017, -59018.68599875999, -30289.742981164814, -137050.16816260436, -55239.07306660093, -530.5857098800791, 2293.4230915812363, -71949.46073883305, -187500.02235174447, 0.0, 0.0, 0.0, 192.0, 0.0, 0.0, 0.0, 0.0, 0.0, 0.0, 0.0, 0.0, 0.0, 1.76916365662948E9, 0.0, 2026-01-23 18:20:56.629
220.0, 33884.596393656306, 10815.115072144876, 5448.7294493591135, 21867.359801216102, 9591.89350508374, -11585.400889563667, 31778.659734566183, 30720.88577996323, -59092.73732814042, -30342.694263779435, -137095.02811372615, -55270.611378027366, -542.1862652523835, 2239.801256632955, -72003.30609122588, -187500.02235174447, 0.0, 0.0, 0.0, 192.0, 0.0, 0.0, 0.0, 0.0, 0.0, 0.0, 0.0, 0.0, 0.0, 1.769163656635408E9, 0.0, 2026-01-23 18:20:56.635
222.0, 33886.406884957185, 10804.721510973157, 5442.985051034099, 21886.76111540331, 9614.893450128253, -11557.19298806107, 31780.090246211323, 30702.98203265453, -59159.68080278407, -30374.120816483595, -137119.39151518245, -55287.106965435385, -547.8189048551208, 2197.1988317011396, -72053.35164706131, -187500.02235174447, 0.0, 0.0, 0.0, 192.0, 0.0, 0.0, 0.0, 0.0, 0.0, 0.0, 0.0, 0.0, 0.0, 1.769163656657475E9, 0.0, 2026-01-23 18:20:56.657
224.0, 33934.53019076946, 10853.135389463352, 5485.051034098988, 21891.410278250012, 9611.361874504313, -11568.145342844171, 31765.67337103765, 30693.527244749934, -58974.7201174164, -30267.346533220596, -137032.3985257624, -55226.131406561304, -525.8694918000093, 2339.6241473703562, -71895.54833120684, -187500.02235174447, 0.0, 0.0, 0.0, 192.0, 0.0, 0.0, 0.0, 0.0, 0.0, 0.0, 0.0, 0.0, 0.0, 1.769163656663445E9, 0.0, 2026-01-23 18:20:56.663
226.0, 33855.31560841985, 10784.157906074275, 5421.326210656906, 21862.37536220257, 9592.407595206214, -11579.321215071825, 31790.215586449576, 30728.440669589123, -59207.78175685189, -30408.095468055664, -137148.60524518552, -55307.156480211794, -555.3067392476487, 2169.7508895100227, -72072.4623885706, -187500.02235174447, 0.0, 0.0, 0.0, 192.0, 0.0, 0.0, 0.0, 0.0, 0.0, 0.0, 0.0, 0.0, 0.0, 1.769163656669513E9, 0.0, 2026-01-23 18:20:56.669
228.0, 33928.8081441889, 10839.232604412151, 5474.478658971627, 21900.95447313243, 9623.85649965483, -11551.180368802592, 31770.076664695345, 30685.793541168397, -59017.054321414755, -30288.08895207512, -137049.56466550406, -55237.86607240034, -529.9151575464199, 2292.663132269756, -71947.7843579989, -187500.02235174447, 0.0, 0.0, 0.0, 192.0, 0.0, 0.0, 0.0, 0.0, 0.0, 0.0, 0.0, 0.0, 0.0, 1.769163656675662E9, 0.0, 2026-01-23 18:20:56.675
230.0, 33885.75868436798, 10816.545583790015, 5449.578815648415, 21866.219862248883, 9590.597103905333, -11586.3843663197, 31780.738446800526, 30721.6010357858, -59092.893790351605, -30341.934304467955, -137095.5198521042, -55269.6949565047, -542.007451296741, 2252.407640505748, -71979.88146303671, -187500.02235174447, 0.0, 0.0, 0.0, 192.0, 0.0, 0.0, 0.0, 0.0, 0.0, 0.0, 0.0, 0.0, 0.0, 1.769163656680467E9, 0.0, 2026-01-23 18:20:56.680
232.0, 33887.32330647985, 10806.04026389602, 5443.8567690678565, 21885.732935158365, 9613.28412452747, -11558.399982261657, 31781.744275301015, 30704.21137859957, -59159.83726499525, -30372.936174027465, -137119.77149483818, -55286.07878519044, -547.4165734549252, 2205.0442940049525, -72034.73264393004, -187500.02235174447, 0.0, 0.0, 0.0, 192.0, 0.0, 0.0, 0.0, 0.0, 0.0, 0.0, 0.0, 0.0, 0.0, 1.769163656687373E9, 0.0, 2026-01-23 18:20:56.687
234.0, 33935.42426054767, 10853.33655516345, 5485.095737587898, 21889.845656138143, 9609.618438436799, -11569.508799255944, 31767.95324897209, 30695.337736050817, -58974.85422788313, -30266.51951867575, -137032.73380192922, -55225.19263329419, -525.1765877218947, 2345.7485253511104, -71881.37732522217, -187500.02235174447, 0.0, 0.0, 0.0, 192.0, 0.0, 0.0, 0.0, 0.0, 0.0, 0.0, 0.0, 0.0, 0.0, 1.769163656692444E9, 0.0, 2026-01-23 18:20:56.692
236.0, 33855.31560841985, 10784.716699685658, 5421.683838568192, 21861.43658893545, 9590.954731816619, -11580.81878195033, 31791.95902251709, 30729.55825681189, -59208.47466093, -30407.11199129963, -137148.6723004189, -55306.396520900314, -554.7032421473554, 2167.605122042313, -72070.49543505853, -187500.02235174447, 0.0, 0.0, 0.0, 192.0, 0.0, 0.0, 0.0, 0.0, 0.0, 0.0, 0.0, 0.0, 0.0, 1.769163656698503E9, 0.0, 2026-01-23 18:20:56.698
238.0, 33927.19881858812, 10838.785569523045, 5473.808106637968, 21899.68042369848, 9622.358932776324, -11552.633232192187, 31772.155376929688, 30687.53697723591, -59017.121376648116, -30286.7478474078, -137049.29644457062, -55236.12263633283, -528.9987360237523, 2303.7495975195884, -71935.7814712264, -187500.02235174447, 0.0, 0.0, 0.0, 192.0, 0.0, 0.0, 0.0, 0.0, 0.0, 0.0, 0.0, 0.0, 0.0, 1.769163656720602E9, 0.0, 2026-01-23 18:20:56.720
240.0, 33885.781036112436, 10816.456176812193, 5449.422353437228, 21865.057571537207, 9588.920723071185, -11588.127802387215, 31782.325420656853, 30723.232713131038, -59093.98902582992, -30341.286103878752, -137095.5645555931, -55268.51031404857, -541.5157129187243, 2278.3803675628146, -71955.5851168138, -187500.02235174447, 0.0, 0.0, 0.0, 192.0, 0.0, 0.0, 0.0, 0.0, 0.0, 0.0, 0.0, 0.0, 0.0, 1.769163656726573E9, 0.0, 2026-01-23 18:20:56.726
242.0, 33888.284431491425, 10806.643760996314, 5444.16969349023, 21885.174141546984, 9612.300647771437, -11559.830493906797, 31783.33124915734, 30705.17250361115, -59160.641927795645, -30371.907993782523, -137119.59268088255, -55284.96119796768, -546.9918903102745, 2188.1910786856506, -72052.83755693884, -187500.02235174447, 0.0, 0.0, 0.0, 192.0, 0.0, 0.0, 0.0, 0.0, 0.0, 0.0, 0.0, 0.0, 0.0, 1.769163656732555E9, 0.0, 2026-01-23 18:20:56.732
244.0, 33934.217266347085, 10853.068334229987, 5484.536943976515, 21889.063345082206, 9608.366740747302, -11570.961662645539, 31769.71903678406, 30696.432971529124, -58975.927111616984, -30265.401931452983, -137032.66674669585, -55223.9856390936, -524.7519045772439, 2311.416245867759, -71922.25866583093, -187500.02235174447, 0.0, 0.0, 0.0, 192.0, 0.0, 0.0, 0.0, 0.0, 0.0, 0.0, 0.0, 0.0, 0.0, 1.769163656737703E9, 0.0, 2026-01-23 18:20:56.737
246.0, 33856.544954364894, 10785.208438063675, 5421.996762990566, 21860.98955404634, 9590.083013782862, -11581.824610450818, 31793.367182417773, 30730.429974845647, -59209.25697198594, -30405.97205233241, -137148.7170039078, -55304.67543657726, -554.3456142360704, 2160.1396393942405, -72082.83359799786, -187500.02235174447, 0.0, 0.0, 0.0, 192.0, 0.0, 0.0, 0.0, 0.0, 0.0, 0.0, 0.0, 0.0, 0.0, 1.769163656743573E9, 0.0, 2026-01-23 18:20:56.743
248.0, 33928.22699883306, 10839.366714878883, 5474.612769438359, 21899.322795787193, 9621.464862998113, -11553.817874648319, 31773.652943808193, 30688.02871561393, -59017.83663247069, -30285.451446229396, -137048.87176142595, -55234.75917992106, -528.1940732233612, 2277.7545187180663, -71961.32951513882, -187500.02235174447, 0.0, 0.0, 0.0, 192.0, 0.0, 0.0, 0.0, 0.0, 0.0, 0.0, 0.0, 0.0, 0.0, 1.7691636567495E9, 0.0, 2026-01-23 18:20:56.749
